Created as New Dataset,Monday, April 03 2023
cm-1,A
4000.00,0.0320
3999.00,0.0320
3998.00,0.0320
3997.00,0.0320
3996.00,0.0320
3995.00,0.0320
3994.00,0.0320
3993.00,0.0320
3992.00,0.0319
3991.00,0.0319
3990.00,0.0319
3989.00,0.0319
3988.00,0.0319
3987.00,0.0319
3986.00,0.0319
3985.00,0.0319
3984.00,0.0319
3983.00,0.0319
3982.00,0.0318
3981.00,0.0318
3980.00,0.0318
3979.00,0.0318
3978.00,0.0318
3977.00,0.0318
3976.00,0.0317
3975.00,0.0317
3974.00,0.0316
3973.00,0.0316
3972.00,0.0316
3971.00,0.0316
3970.00,0.0316
3969.00,0.0316
3968.00,0.0316
3967.00,0.0316
3966.00,0.0316
3965.00,0.0316
3964.00,0.0316
3963.00,0.0316
3962.00,0.0316
3961.00,0.0316
3960.00,0.0315
3959.00,0.0315
3958.00,0.0315
3957.00,0.0315
3956.00,0.0315
3955.00,0.0314
3954.00,0.0314
3953.00,0.0314
3952.00,0.0314
3951.00,0.0314
3950.00,0.0313
3949.00,0.0313
3948.00,0.0313
3947.00,0.0313
3946.00,0.0313
3945.00,0.0313
3944.00,0.0313
3943.00,0.0313
3942.00,0.0312
3941.00,0.0312
3940.00,0.0312
3939.00,0.0312
3938.00,0.0312
3937.00,0.0312
3936.00,0.0312
3935.00,0.0312
3934.00,0.0312
3933.00,0.0312
3932.00,0.0312
3931.00,0.0311
3930.00,0.0311
3929.00,0.0311
3928.00,0.0311
3927.00,0.0310
3926.00,0.0310
3925.00,0.0309
3924.00,0.0309
3923.00,0.0309
3922.00,0.0308
3921.00,0.0308
3920.00,0.0308
3919.00,0.0308
3918.00,0.0308
3917.00,0.0308
3916.00,0.0308
3915.00,0.0308
3914.00,0.0308
3913.00,0.0308
3912.00,0.0308
3911.00,0.0307
3910.00,0.0307
3909.00,0.0308
3908.00,0.0308
3907.00,0.0308
3906.00,0.0308
3905.00,0.0307
3904.00,0.0306
3903.00,0.0306
3902.00,0.0306
3901.00,0.0306
3900.00,0.0305
3899.00,0.0305
3898.00,0.0305
3897.00,0.0306
3896.00,0.0306
3895.00,0.0307
3894.00,0.0306
3893.00,0.0306
3892.00,0.0305
3891.00,0.0304
3890.00,0.0304
3889.00,0.0305
3888.00,0.0306
3887.00,0.0306
3886.00,0.0305
3885.00,0.0304
3884.00,0.0304
3883.00,0.0304
3882.00,0.0303
3881.00,0.0302
3880.00,0.0301
3879.00,0.0301
3878.00,0.0302
3877.00,0.0302
3876.00,0.0302
3875.00,0.0302
3874.00,0.0302
3873.00,0.0302
3872.00,0.0302
3871.00,0.0302
3870.00,0.0301
3869.00,0.0300
3868.00,0.0301
3867.00,0.0302
3866.00,0.0302
3865.00,0.0301
3864.00,0.0301
3863.00,0.0300
3862.00,0.0300
3861.00,0.0300
3860.00,0.0300
3859.00,0.0300
3858.00,0.0300
3857.00,0.0299
3856.00,0.0299
3855.00,0.0300
3854.00,0.0301
3853.00,0.0300
3852.00,0.0299
3851.00,0.0299
3850.00,0.0300
3849.00,0.0300
3848.00,0.0299
3847.00,0.0299
3846.00,0.0298
3845.00,0.0298
3844.00,0.0298
3843.00,0.0298
3842.00,0.0298
3841.00,0.0298
3840.00,0.0298
3839.00,0.0298
3838.00,0.0298
3837.00,0.0298
3836.00,0.0298
3835.00,0.0297
3834.00,0.0297
3833.00,0.0297
3832.00,0.0296
3831.00,0.0296
3830.00,0.0297
3829.00,0.0297
3828.00,0.0296
3827.00,0.0295
3826.00,0.0295
3825.00,0.0295
3824.00,0.0295
3823.00,0.0295
3822.00,0.0295
3821.00,0.0295
3820.00,0.0294
3819.00,0.0295
3818.00,0.0296
3817.00,0.0295
3816.00,0.0294
3815.00,0.0293
3814.00,0.0293
3813.00,0.0294
3812.00,0.0294
3811.00,0.0293
3810.00,0.0292
3809.00,0.0292
3808.00,0.0293
3807.00,0.0293
3806.00,0.0293
3805.00,0.0293
3804.00,0.0294
3803.00,0.0295
3802.00,0.0294
3801.00,0.0293
3800.00,0.0292
3799.00,0.0292
3798.00,0.0292
3797.00,0.0290
3796.00,0.0289
3795.00,0.0289
3794.00,0.0290
3793.00,0.0290
3792.00,0.0289
3791.00,0.0289
3790.00,0.0289
3789.00,0.0289
3788.00,0.0289
3787.00,0.0289
3786.00,0.0289
3785.00,0.0289
3784.00,0.0289
3783.00,0.0289
3782.00,0.0289
3781.00,0.0289
3780.00,0.0288
3779.00,0.0287
3778.00,0.0287
3777.00,0.0287
3776.00,0.0287
3775.00,0.0287
3774.00,0.0287
3773.00,0.0287
3772.00,0.0287
3771.00,0.0287
3770.00,0.0287
3769.00,0.0287
3768.00,0.0287
3767.00,0.0286
3766.00,0.0286
3765.00,0.0285
3764.00,0.0285
3763.00,0.0285
3762.00,0.0286
3761.00,0.0286
3760.00,0.0286
3759.00,0.0286
3758.00,0.0286
3757.00,0.0286
3756.00,0.0285
3755.00,0.0285
3754.00,0.0286
3753.00,0.0287
3752.00,0.0288
3751.00,0.0288
3750.00,0.0288
3749.00,0.0286
3748.00,0.0286
3747.00,0.0285
3746.00,0.0284
3745.00,0.0283
3744.00,0.0282
3743.00,0.0282
3742.00,0.0284
3741.00,0.0285
3740.00,0.0284
3739.00,0.0284
3738.00,0.0283
3737.00,0.0283
3736.00,0.0283
3735.00,0.0282
3734.00,0.0281
3733.00,0.0280
3732.00,0.0280
3731.00,0.0280
3730.00,0.0281
3729.00,0.0282
3728.00,0.0282
3727.00,0.0282
3726.00,0.0281
3725.00,0.0280
3724.00,0.0279
3723.00,0.0279
3722.00,0.0279
3721.00,0.0280
3720.00,0.0280
3719.00,0.0280
3718.00,0.0280
3717.00,0.0280
3716.00,0.0281
3715.00,0.0282
3714.00,0.0282
3713.00,0.0283
3712.00,0.0284
3711.00,0.0284
3710.00,0.0284
3709.00,0.0284
3708.00,0.0285
3707.00,0.0286
3706.00,0.0287
3705.00,0.0288
3704.00,0.0289
3703.00,0.0289
3702.00,0.0290
3701.00,0.0291
3700.00,0.0292
3699.00,0.0294
3698.00,0.0295
3697.00,0.0295
3696.00,0.0295
3695.00,0.0295
3694.00,0.0295
3693.00,0.0295
3692.00,0.0295
3691.00,0.0295
3690.00,0.0295
3689.00,0.0295
3688.00,0.0294
3687.00,0.0293
3686.00,0.0294
3685.00,0.0293
3684.00,0.0293
3683.00,0.0293
3682.00,0.0293
3681.00,0.0293
3680.00,0.0293
3679.00,0.0292
3678.00,0.0292
3677.00,0.0294
3676.00,0.0297
3675.00,0.0298
3674.00,0.0299
3673.00,0.0301
3672.00,0.0303
3671.00,0.0304
3670.00,0.0304
3669.00,0.0305
3668.00,0.0306
3667.00,0.0308
3666.00,0.0310
3665.00,0.0312
3664.00,0.0314
3663.00,0.0316
3662.00,0.0318
3661.00,0.0320
3660.00,0.0322
3659.00,0.0324
3658.00,0.0327
3657.00,0.0331
3656.00,0.0334
3655.00,0.0337
3654.00,0.0339
3653.00,0.0340
3652.00,0.0342
3651.00,0.0345
3650.00,0.0351
3649.00,0.0355
3648.00,0.0357
3647.00,0.0358
3646.00,0.0359
3645.00,0.0361
3644.00,0.0363
3643.00,0.0364
3642.00,0.0366
3641.00,0.0368
3640.00,0.0371
3639.00,0.0373
3638.00,0.0374
3637.00,0.0376
3636.00,0.0378
3635.00,0.0380
3634.00,0.0382
3633.00,0.0383
3632.00,0.0384
3631.00,0.0386
3630.00,0.0391
3629.00,0.0397
3628.00,0.0402
3627.00,0.0406
3626.00,0.0409
3625.00,0.0411
3624.00,0.0413
3623.00,0.0414
3622.00,0.0416
3621.00,0.0419
3620.00,0.0422
3619.00,0.0425
3618.00,0.0426
3617.00,0.0427
3616.00,0.0427
3615.00,0.0428
3614.00,0.0428
3613.00,0.0429
3612.00,0.0431
3611.00,0.0433
3610.00,0.0435
3609.00,0.0439
3608.00,0.0441
3607.00,0.0444
3606.00,0.0445
3605.00,0.0446
3604.00,0.0447
3603.00,0.0449
3602.00,0.0450
3601.00,0.0452
3600.00,0.0453
3599.00,0.0454
3598.00,0.0456
3597.00,0.0457
3596.00,0.0460
3595.00,0.0463
3594.00,0.0466
3593.00,0.0468
3592.00,0.0469
3591.00,0.0469
3590.00,0.0470
3589.00,0.0472
3588.00,0.0475
3587.00,0.0478
3586.00,0.0480
3585.00,0.0482
3584.00,0.0483
3583.00,0.0485
3582.00,0.0486
3581.00,0.0488
3580.00,0.0490
3579.00,0.0493
3578.00,0.0495
3577.00,0.0497
3576.00,0.0499
3575.00,0.0500
3574.00,0.0502
3573.00,0.0503
3572.00,0.0504
3571.00,0.0504
3570.00,0.0505
3569.00,0.0507
3568.00,0.0512
3567.00,0.0517
3566.00,0.0520
3565.00,0.0522
3564.00,0.0522
3563.00,0.0523
3562.00,0.0524
3561.00,0.0526
3560.00,0.0528
3559.00,0.0530
3558.00,0.0532
3557.00,0.0534
3556.00,0.0535
3555.00,0.0537
3554.00,0.0539
3553.00,0.0542
3552.00,0.0544
3551.00,0.0546
3550.00,0.0547
3549.00,0.0548
3548.00,0.0549
3547.00,0.0552
3546.00,0.0555
3545.00,0.0558
3544.00,0.0560
3543.00,0.0562
3542.00,0.0563
3541.00,0.0564
3540.00,0.0565
3539.00,0.0566
3538.00,0.0568
3537.00,0.0570
3536.00,0.0572
3535.00,0.0575
3534.00,0.0577
3533.00,0.0579
3532.00,0.0580
3531.00,0.0581
3530.00,0.0582
3529.00,0.0584
3528.00,0.0587
3527.00,0.0589
3526.00,0.0591
3525.00,0.0594
3524.00,0.0596
3523.00,0.0597
3522.00,0.0599
3521.00,0.0600
3520.00,0.0601
3519.00,0.0603
3518.00,0.0605
3517.00,0.0607
3516.00,0.0609
3515.00,0.0610
3514.00,0.0612
3513.00,0.0613
3512.00,0.0614
3511.00,0.0616
3510.00,0.0618
3509.00,0.0621
3508.00,0.0622
3507.00,0.0623
3506.00,0.0624
3505.00,0.0626
3504.00,0.0628
3503.00,0.0631
3502.00,0.0633
3501.00,0.0635
3500.00,0.0636
3499.00,0.0638
3498.00,0.0639
3497.00,0.0641
3496.00,0.0643
3495.00,0.0645
3494.00,0.0647
3493.00,0.0649
3492.00,0.0651
3491.00,0.0652
3490.00,0.0653
3489.00,0.0654
3488.00,0.0656
3487.00,0.0657
3486.00,0.0659
3485.00,0.0660
3484.00,0.0661
3483.00,0.0663
3482.00,0.0664
3481.00,0.0667
3480.00,0.0669
3479.00,0.0671
3478.00,0.0672
3477.00,0.0674
3476.00,0.0675
3475.00,0.0677
3474.00,0.0678
3473.00,0.0680
3472.00,0.0681
3471.00,0.0682
3470.00,0.0684
3469.00,0.0686
3468.00,0.0687
3467.00,0.0689
3466.00,0.0691
3465.00,0.0692
3464.00,0.0694
3463.00,0.0695
3462.00,0.0697
3461.00,0.0698
3460.00,0.0699
3459.00,0.0700
3458.00,0.0701
3457.00,0.0703
3456.00,0.0704
3455.00,0.0706
3454.00,0.0708
3453.00,0.0709
3452.00,0.0711
3451.00,0.0713
3450.00,0.0714
3449.00,0.0716
3448.00,0.0718
3447.00,0.0720
3446.00,0.0721
3445.00,0.0722
3444.00,0.0723
3443.00,0.0724
3442.00,0.0726
3441.00,0.0727
3440.00,0.0728
3439.00,0.0730
3438.00,0.0731
3437.00,0.0733
3436.00,0.0734
3435.00,0.0735
3434.00,0.0737
3433.00,0.0739
3432.00,0.0740
3431.00,0.0742
3430.00,0.0743
3429.00,0.0744
3428.00,0.0745
3427.00,0.0746
3426.00,0.0747
3425.00,0.0748
3424.00,0.0749
3423.00,0.0750
3422.00,0.0751
3421.00,0.0753
3420.00,0.0755
3419.00,0.0756
3418.00,0.0758
3417.00,0.0759
3416.00,0.0760
3415.00,0.0760
3414.00,0.0761
3413.00,0.0762
3412.00,0.0763
3411.00,0.0764
3410.00,0.0765
3409.00,0.0766
3408.00,0.0767
3407.00,0.0768
3406.00,0.0769
3405.00,0.0770
3404.00,0.0771
3403.00,0.0773
3402.00,0.0774
3401.00,0.0775
3400.00,0.0775
3399.00,0.0776
3398.00,0.0776
3397.00,0.0777
3396.00,0.0778
3395.00,0.0779
3394.00,0.0781
3393.00,0.0782
3392.00,0.0782
3391.00,0.0783
3390.00,0.0784
3389.00,0.0785
3388.00,0.0785
3387.00,0.0786
3386.00,0.0787
3385.00,0.0787
3384.00,0.0788
3383.00,0.0789
3382.00,0.0790
3381.00,0.0790
3380.00,0.0791
3379.00,0.0792
3378.00,0.0792
3377.00,0.0793
3376.00,0.0793
3375.00,0.0794
3374.00,0.0794
3373.00,0.0794
3372.00,0.0794
3371.00,0.0794
3370.00,0.0795
3369.00,0.0796
3368.00,0.0797
3367.00,0.0798
3366.00,0.0799
3365.00,0.0800
3364.00,0.0801
3363.00,0.0801
3362.00,0.0802
3361.00,0.0802
3360.00,0.0802
3359.00,0.0802
3358.00,0.0802
3357.00,0.0803
3356.00,0.0804
3355.00,0.0804
3354.00,0.0805
3353.00,0.0805
3352.00,0.0805
3351.00,0.0806
3350.00,0.0806
3349.00,0.0806
3348.00,0.0806
3347.00,0.0805
3346.00,0.0805
3345.00,0.0805
3344.00,0.0806
3343.00,0.0807
3342.00,0.0807
3341.00,0.0807
3340.00,0.0807
3339.00,0.0807
3338.00,0.0807
3337.00,0.0807
3336.00,0.0807
3335.00,0.0807
3334.00,0.0807
3333.00,0.0807
3332.00,0.0807
3331.00,0.0807
3330.00,0.0806
3329.00,0.0806
3328.00,0.0807
3327.00,0.0807
3326.00,0.0807
3325.00,0.0807
3324.00,0.0806
3323.00,0.0806
3322.00,0.0806
3321.00,0.0806
3320.00,0.0806
3319.00,0.0806
3318.00,0.0806
3317.00,0.0806
3316.00,0.0805
3315.00,0.0805
3314.00,0.0805
3313.00,0.0805
3312.00,0.0804
3311.00,0.0804
3310.00,0.0804
3309.00,0.0805
3308.00,0.0805
3307.00,0.0806
3306.00,0.0806
3305.00,0.0805
3304.00,0.0805
3303.00,0.0804
3302.00,0.0804
3301.00,0.0804
3300.00,0.0804
3299.00,0.0804
3298.00,0.0804
3297.00,0.0803
3296.00,0.0803
3295.00,0.0803
3294.00,0.0803
3293.00,0.0803
3292.00,0.0803
3291.00,0.0803
3290.00,0.0803
3289.00,0.0803
3288.00,0.0803
3287.00,0.0803
3286.00,0.0803
3285.00,0.0802
3284.00,0.0802
3283.00,0.0802
3282.00,0.0802
3281.00,0.0801
3280.00,0.0801
3279.00,0.0801
3278.00,0.0801
3277.00,0.0801
3276.00,0.0800
3275.00,0.0800
3274.00,0.0800
3273.00,0.0800
3272.00,0.0800
3271.00,0.0799
3270.00,0.0799
3269.00,0.0798
3268.00,0.0797
3267.00,0.0797
3266.00,0.0796
3265.00,0.0796
3264.00,0.0796
3263.00,0.0795
3262.00,0.0794
3261.00,0.0794
3260.00,0.0793
3259.00,0.0793
3258.00,0.0793
3257.00,0.0792
3256.00,0.0792
3255.00,0.0792
3254.00,0.0791
3253.00,0.0791
3252.00,0.0790
3251.00,0.0789
3250.00,0.0788
3249.00,0.0788
3248.00,0.0788
3247.00,0.0787
3246.00,0.0788
3245.00,0.0787
3244.00,0.0787
3243.00,0.0786
3242.00,0.0786
3241.00,0.0785
3240.00,0.0785
3239.00,0.0784
3238.00,0.0784
3237.00,0.0783
3236.00,0.0782
3235.00,0.0782
3234.00,0.0781
3233.00,0.0780
3232.00,0.0780
3231.00,0.0780
3230.00,0.0779
3229.00,0.0779
3228.00,0.0779
3227.00,0.0778
3226.00,0.0777
3225.00,0.0777
3224.00,0.0776
3223.00,0.0776
3222.00,0.0775
3221.00,0.0775
3220.00,0.0774
3219.00,0.0773
3218.00,0.0772
3217.00,0.0771
3216.00,0.0771
3215.00,0.0770
3214.00,0.0770
3213.00,0.0769
3212.00,0.0768
3211.00,0.0768
3210.00,0.0767
3209.00,0.0767
3208.00,0.0766
3207.00,0.0766
3206.00,0.0765
3205.00,0.0764
3204.00,0.0763
3203.00,0.0762
3202.00,0.0761
3201.00,0.0761
3200.00,0.0760
3199.00,0.0760
3198.00,0.0759
3197.00,0.0758
3196.00,0.0757
3195.00,0.0756
3194.00,0.0756
3193.00,0.0755
3192.00,0.0754
3191.00,0.0754
3190.00,0.0753
3189.00,0.0752
3188.00,0.0751
3187.00,0.0750
3186.00,0.0749
3185.00,0.0748
3184.00,0.0747
3183.00,0.0746
3182.00,0.0745
3181.00,0.0744
3180.00,0.0743
3179.00,0.0743
3178.00,0.0742
3177.00,0.0741
3176.00,0.0740
3175.00,0.0739
3174.00,0.0738
3173.00,0.0737
3172.00,0.0737
3171.00,0.0736
3170.00,0.0735
3169.00,0.0734
3168.00,0.0733
3167.00,0.0732
3166.00,0.0731
3165.00,0.0729
3164.00,0.0728
3163.00,0.0728
3162.00,0.0727
3161.00,0.0727
3160.00,0.0726
3159.00,0.0725
3158.00,0.0724
3157.00,0.0723
3156.00,0.0722
3155.00,0.0720
3154.00,0.0719
3153.00,0.0718
3152.00,0.0718
3151.00,0.0717
3150.00,0.0716
3149.00,0.0715
3148.00,0.0714
3147.00,0.0713
3146.00,0.0712
3145.00,0.0711
3144.00,0.0710
3143.00,0.0710
3142.00,0.0709
3141.00,0.0708
3140.00,0.0708
3139.00,0.0707
3138.00,0.0706
3137.00,0.0705
3136.00,0.0704
3135.00,0.0703
3134.00,0.0702
3133.00,0.0702
3132.00,0.0701
3131.00,0.0700
3130.00,0.0699
3129.00,0.0698
3128.00,0.0697
3127.00,0.0697
3126.00,0.0696
3125.00,0.0695
3124.00,0.0694
3123.00,0.0692
3122.00,0.0691
3121.00,0.0691
3120.00,0.0690
3119.00,0.0690
3118.00,0.0689
3117.00,0.0688
3116.00,0.0687
3115.00,0.0686
3114.00,0.0686
3113.00,0.0686
3112.00,0.0685
3111.00,0.0684
3110.00,0.0683
3109.00,0.0682
3108.00,0.0681
3107.00,0.0681
3106.00,0.0681
3105.00,0.0680
3104.00,0.0679
3103.00,0.0678
3102.00,0.0678
3101.00,0.0677
3100.00,0.0676
3099.00,0.0675
3098.00,0.0674
3097.00,0.0673
3096.00,0.0673
3095.00,0.0673
3094.00,0.0673
3093.00,0.0672
3092.00,0.0672
3091.00,0.0671
3090.00,0.0670
3089.00,0.0670
3088.00,0.0669
3087.00,0.0668
3086.00,0.0667
3085.00,0.0666
3084.00,0.0665
3083.00,0.0664
3082.00,0.0664
3081.00,0.0663
3080.00,0.0663
3079.00,0.0663
3078.00,0.0662
3077.00,0.0661
3076.00,0.0660
3075.00,0.0660
3074.00,0.0659
3073.00,0.0658
3072.00,0.0657
3071.00,0.0656
3070.00,0.0655
3069.00,0.0654
3068.00,0.0653
3067.00,0.0653
3066.00,0.0652
3065.00,0.0652
3064.00,0.0652
3063.00,0.0651
3062.00,0.0650
3061.00,0.0649
3060.00,0.0648
3059.00,0.0646
3058.00,0.0645
3057.00,0.0644
3056.00,0.0643
3055.00,0.0643
3054.00,0.0642
3053.00,0.0641
3052.00,0.0641
3051.00,0.0640
3050.00,0.0639
3049.00,0.0639
3048.00,0.0638
3047.00,0.0637
3046.00,0.0636
3045.00,0.0635
3044.00,0.0634
3043.00,0.0633
3042.00,0.0632
3041.00,0.0631
3040.00,0.0629
3039.00,0.0628
3038.00,0.0628
3037.00,0.0627
3036.00,0.0626
3035.00,0.0625
3034.00,0.0624
3033.00,0.0623
3032.00,0.0622
3031.00,0.0622
3030.00,0.0621
3029.00,0.0620
3028.00,0.0619
3027.00,0.0619
3026.00,0.0618
3025.00,0.0617
3024.00,0.0617
3023.00,0.0616
3022.00,0.0614
3021.00,0.0613
3020.00,0.0613
3019.00,0.0612
3018.00,0.0611
3017.00,0.0611
3016.00,0.0610
3015.00,0.0610
3014.00,0.0609
3013.00,0.0609
3012.00,0.0608
3011.00,0.0607
3010.00,0.0606
3009.00,0.0605
3008.00,0.0604
3007.00,0.0603
3006.00,0.0602
3005.00,0.0601
3004.00,0.0601
3003.00,0.0600
3002.00,0.0600
3001.00,0.0600
3000.00,0.0599
2999.00,0.0599
2998.00,0.0599
2997.00,0.0598
2996.00,0.0597
2995.00,0.0597
2994.00,0.0597
2993.00,0.0597
2992.00,0.0596
2991.00,0.0596
2990.00,0.0595
2989.00,0.0595
2988.00,0.0594
2987.00,0.0594
2986.00,0.0593
2985.00,0.0593
2984.00,0.0592
2983.00,0.0592
2982.00,0.0591
2981.00,0.0591
2980.00,0.0592
2979.00,0.0592
2978.00,0.0593
2977.00,0.0594
2976.00,0.0595
2975.00,0.0595
2974.00,0.0595
2973.00,0.0596
2972.00,0.0596
2971.00,0.0597
2970.00,0.0597
2969.00,0.0598
2968.00,0.0599
2967.00,0.0600
2966.00,0.0600
2965.00,0.0600
2964.00,0.0601
2963.00,0.0601
2962.00,0.0602
2961.00,0.0602
2960.00,0.0602
2959.00,0.0602
2958.00,0.0603
2957.00,0.0603
2956.00,0.0604
2955.00,0.0605
2954.00,0.0606
2953.00,0.0606
2952.00,0.0607
2951.00,0.0608
2950.00,0.0609
2949.00,0.0609
2948.00,0.0610
2947.00,0.0611
2946.00,0.0611
2945.00,0.0612
2944.00,0.0613
2943.00,0.0613
2942.00,0.0614
2941.00,0.0615
2940.00,0.0616
2939.00,0.0617
2938.00,0.0618
2937.00,0.0619
2936.00,0.0620
2935.00,0.0622
2934.00,0.0623
2933.00,0.0624
2932.00,0.0624
2931.00,0.0625
2930.00,0.0625
2929.00,0.0626
2928.00,0.0626
2927.00,0.0627
2926.00,0.0627
2925.00,0.0628
2924.00,0.0628
2923.00,0.0629
2922.00,0.0628
2921.00,0.0628
2920.00,0.0627
2919.00,0.0625
2918.00,0.0623
2917.00,0.0621
2916.00,0.0619
2915.00,0.0618
2914.00,0.0617
2913.00,0.0616
2912.00,0.0615
2911.00,0.0614
2910.00,0.0612
2909.00,0.0611
2908.00,0.0610
2907.00,0.0610
2906.00,0.0609
2905.00,0.0608
2904.00,0.0607
2903.00,0.0606
2902.00,0.0606
2901.00,0.0605
2900.00,0.0604
2899.00,0.0603
2898.00,0.0602
2897.00,0.0601
2896.00,0.0600
2895.00,0.0599
2894.00,0.0598
2893.00,0.0597
2892.00,0.0596
2891.00,0.0595
2890.00,0.0595
2889.00,0.0594
2888.00,0.0593
2887.00,0.0592
2886.00,0.0592
2885.00,0.0591
2884.00,0.0590
2883.00,0.0589
2882.00,0.0589
2881.00,0.0588
2880.00,0.0588
2879.00,0.0588
2878.00,0.0587
2877.00,0.0587
2876.00,0.0586
2875.00,0.0586
2874.00,0.0585
2873.00,0.0584
2872.00,0.0583
2871.00,0.0582
2870.00,0.0581
2869.00,0.0581
2868.00,0.0580
2867.00,0.0579
2866.00,0.0579
2865.00,0.0578
2864.00,0.0577
2863.00,0.0577
2862.00,0.0576
2861.00,0.0575
2860.00,0.0575
2859.00,0.0575
2858.00,0.0575
2857.00,0.0574
2856.00,0.0574
2855.00,0.0573
2854.00,0.0573
2853.00,0.0573
2852.00,0.0573
2851.00,0.0572
2850.00,0.0570
2849.00,0.0569
2848.00,0.0566
2847.00,0.0565
2846.00,0.0563
2845.00,0.0561
2844.00,0.0560
2843.00,0.0558
2842.00,0.0557
2841.00,0.0555
2840.00,0.0554
2839.00,0.0553
2838.00,0.0551
2837.00,0.0550
2836.00,0.0549
2835.00,0.0547
2834.00,0.0546
2833.00,0.0545
2832.00,0.0544
2831.00,0.0543
2830.00,0.0542
2829.00,0.0541
2828.00,0.0539
2827.00,0.0538
2826.00,0.0537
2825.00,0.0536
2824.00,0.0536
2823.00,0.0535
2822.00,0.0534
2821.00,0.0533
2820.00,0.0533
2819.00,0.0532
2818.00,0.0531
2817.00,0.0531
2816.00,0.0530
2815.00,0.0529
2814.00,0.0528
2813.00,0.0527
2812.00,0.0527
2811.00,0.0526
2810.00,0.0525
2809.00,0.0524
2808.00,0.0523
2807.00,0.0522
2806.00,0.0522
2805.00,0.0521
2804.00,0.0521
2803.00,0.0520
2802.00,0.0519
2801.00,0.0518
2800.00,0.0517
2799.00,0.0517
2798.00,0.0516
2797.00,0.0516
2796.00,0.0515
2795.00,0.0515
2794.00,0.0515
2793.00,0.0514
2792.00,0.0513
2791.00,0.0513
2790.00,0.0512
2789.00,0.0512
2788.00,0.0511
2787.00,0.0510
2786.00,0.0510
2785.00,0.0509
2784.00,0.0509
2783.00,0.0508
2782.00,0.0508
2781.00,0.0507
2780.00,0.0507
2779.00,0.0506
2778.00,0.0505
2777.00,0.0504
2776.00,0.0504
2775.00,0.0503
2774.00,0.0502
2773.00,0.0502
2772.00,0.0502
2771.00,0.0502
2770.00,0.0502
2769.00,0.0501
2768.00,0.0501
2767.00,0.0500
2766.00,0.0500
2765.00,0.0499
2764.00,0.0499
2763.00,0.0499
2762.00,0.0498
2761.00,0.0498
2760.00,0.0497
2759.00,0.0497
2758.00,0.0496
2757.00,0.0496
2756.00,0.0496
2755.00,0.0495
