Created as New Dataset,Monday, April 03 2023
cm-1,A
4000.00,0.0051
3999.00,0.0052
3998.00,0.0052
3997.00,0.0052
3996.00,0.0052
3995.00,0.0052
3994.00,0.0052
3993.00,0.0052
3992.00,0.0052
3991.00,0.0052
3990.00,0.0052
3989.00,0.0052
3988.00,0.0052
3987.00,0.0052
3986.00,0.0051
3985.00,0.0051
3984.00,0.0051
3983.00,0.0051
3982.00,0.0051
3981.00,0.0051
3980.00,0.0051
3979.00,0.0052
3978.00,0.0052
3977.00,0.0052
3976.00,0.0052
3975.00,0.0052
3974.00,0.0052
3973.00,0.0052
3972.00,0.0052
3971.00,0.0052
3970.00,0.0052
3969.00,0.0052
3968.00,0.0052
3967.00,0.0052
3966.00,0.0052
3965.00,0.0052
3964.00,0.0053
3963.00,0.0053
3962.00,0.0053
3961.00,0.0053
3960.00,0.0052
3959.00,0.0052
3958.00,0.0052
3957.00,0.0052
3956.00,0.0052
3955.00,0.0052
3954.00,0.0052
3953.00,0.0052
3952.00,0.0053
3951.00,0.0053
3950.00,0.0053
3949.00,0.0054
3948.00,0.0054
3947.00,0.0055
3946.00,0.0054
3945.00,0.0053
3944.00,0.0052
3943.00,0.0052
3942.00,0.0051
3941.00,0.0052
3940.00,0.0052
3939.00,0.0052
3938.00,0.0052
3937.00,0.0052
3936.00,0.0053
3935.00,0.0054
3934.00,0.0054
3933.00,0.0055
3932.00,0.0054
3931.00,0.0054
3930.00,0.0053
3929.00,0.0053
3928.00,0.0052
3927.00,0.0052
3926.00,0.0051
3925.00,0.0051
3924.00,0.0052
3923.00,0.0053
3922.00,0.0053
3921.00,0.0054
3920.00,0.0054
3919.00,0.0055
3918.00,0.0055
3917.00,0.0054
3916.00,0.0054
3915.00,0.0053
3914.00,0.0053
3913.00,0.0052
3912.00,0.0052
3911.00,0.0052
3910.00,0.0053
3909.00,0.0053
3908.00,0.0054
3907.00,0.0054
3906.00,0.0055
3905.00,0.0056
3904.00,0.0058
3903.00,0.0059
3902.00,0.0059
3901.00,0.0059
3900.00,0.0057
3899.00,0.0056
3898.00,0.0055
3897.00,0.0055
3896.00,0.0056
3895.00,0.0056
3894.00,0.0056
3893.00,0.0055
3892.00,0.0055
3891.00,0.0055
3890.00,0.0055
3889.00,0.0056
3888.00,0.0056
3887.00,0.0057
3886.00,0.0057
3885.00,0.0056
3884.00,0.0056
3883.00,0.0055
3882.00,0.0054
3881.00,0.0053
3880.00,0.0053
3879.00,0.0054
3878.00,0.0055
3877.00,0.0055
3876.00,0.0055
3875.00,0.0054
3874.00,0.0055
3873.00,0.0056
3872.00,0.0057
3871.00,0.0058
3870.00,0.0058
3869.00,0.0057
3868.00,0.0058
3867.00,0.0059
3866.00,0.0059
3865.00,0.0058
3864.00,0.0057
3863.00,0.0056
3862.00,0.0057
3861.00,0.0058
3860.00,0.0058
3859.00,0.0058
3858.00,0.0057
3857.00,0.0058
3856.00,0.0059
3855.00,0.0060
3854.00,0.0060
3853.00,0.0059
3852.00,0.0057
3851.00,0.0057
3850.00,0.0057
3849.00,0.0057
3848.00,0.0057
3847.00,0.0057
3846.00,0.0056
3845.00,0.0056
3844.00,0.0056
3843.00,0.0057
3842.00,0.0058
3841.00,0.0059
3840.00,0.0059
3839.00,0.0059
3838.00,0.0058
3837.00,0.0058
3836.00,0.0057
3835.00,0.0057
3834.00,0.0057
3833.00,0.0057
3832.00,0.0057
3831.00,0.0058
3830.00,0.0058
3829.00,0.0058
3828.00,0.0057
3827.00,0.0056
3826.00,0.0056
3825.00,0.0057
3824.00,0.0058
3823.00,0.0060
3822.00,0.0060
3821.00,0.0059
3820.00,0.0059
3819.00,0.0059
3818.00,0.0060
3817.00,0.0059
3816.00,0.0057
3815.00,0.0056
3814.00,0.0056
3813.00,0.0056
3812.00,0.0056
3811.00,0.0056
3810.00,0.0055
3809.00,0.0056
3808.00,0.0057
3807.00,0.0058
3806.00,0.0058
3805.00,0.0059
3804.00,0.0059
3803.00,0.0059
3802.00,0.0059
3801.00,0.0057
3800.00,0.0057
3799.00,0.0057
3798.00,0.0057
3797.00,0.0057
3796.00,0.0056
3795.00,0.0056
3794.00,0.0056
3793.00,0.0056
3792.00,0.0055
3791.00,0.0054
3790.00,0.0054
3789.00,0.0055
3788.00,0.0055
3787.00,0.0056
3786.00,0.0056
3785.00,0.0056
3784.00,0.0056
3783.00,0.0056
3782.00,0.0056
3781.00,0.0055
3780.00,0.0054
3779.00,0.0054
3778.00,0.0054
3777.00,0.0055
3776.00,0.0056
3775.00,0.0056
3774.00,0.0057
3773.00,0.0057
3772.00,0.0058
3771.00,0.0058
3770.00,0.0058
3769.00,0.0058
3768.00,0.0058
3767.00,0.0058
3766.00,0.0058
3765.00,0.0058
3764.00,0.0059
3763.00,0.0059
3762.00,0.0060
3761.00,0.0059
3760.00,0.0059
3759.00,0.0059
3758.00,0.0060
3757.00,0.0061
3756.00,0.0062
3755.00,0.0062
3754.00,0.0064
3753.00,0.0065
3752.00,0.0067
3751.00,0.0069
3750.00,0.0070
3749.00,0.0069
3748.00,0.0067
3747.00,0.0066
3746.00,0.0065
3745.00,0.0064
3744.00,0.0064
3743.00,0.0063
3742.00,0.0064
3741.00,0.0065
3740.00,0.0065
3739.00,0.0065
3738.00,0.0065
3737.00,0.0066
3736.00,0.0065
3735.00,0.0063
3734.00,0.0063
3733.00,0.0063
3732.00,0.0063
3731.00,0.0062
3730.00,0.0061
3729.00,0.0061
3728.00,0.0062
3727.00,0.0062
3726.00,0.0061
3725.00,0.0061
3724.00,0.0060
3723.00,0.0060
3722.00,0.0059
3721.00,0.0058
3720.00,0.0058
3719.00,0.0058
3718.00,0.0058
3717.00,0.0059
3716.00,0.0060
3715.00,0.0061
3714.00,0.0061
3713.00,0.0061
3712.00,0.0060
3711.00,0.0059
3710.00,0.0059
3709.00,0.0059
3708.00,0.0059
3707.00,0.0059
3706.00,0.0058
3705.00,0.0057
3704.00,0.0056
3703.00,0.0055
3702.00,0.0055
3701.00,0.0055
3700.00,0.0056
3699.00,0.0057
3698.00,0.0058
3697.00,0.0058
3696.00,0.0057
3695.00,0.0057
3694.00,0.0058
3693.00,0.0058
3692.00,0.0058
3691.00,0.0059
3690.00,0.0059
3689.00,0.0059
3688.00,0.0060
3687.00,0.0060
3686.00,0.0060
3685.00,0.0060
3684.00,0.0061
3683.00,0.0060
3682.00,0.0060
3681.00,0.0060
3680.00,0.0059
3679.00,0.0059
3678.00,0.0060
3677.00,0.0061
3676.00,0.0062
3675.00,0.0062
3674.00,0.0063
3673.00,0.0065
3672.00,0.0065
3671.00,0.0064
3670.00,0.0061
3669.00,0.0060
3668.00,0.0060
3667.00,0.0060
3666.00,0.0060
3665.00,0.0060
3664.00,0.0060
3663.00,0.0060
3662.00,0.0060
3661.00,0.0059
3660.00,0.0059
3659.00,0.0060
3658.00,0.0060
3657.00,0.0061
3656.00,0.0062
3655.00,0.0062
3654.00,0.0062
3653.00,0.0062
3652.00,0.0063
3651.00,0.0065
3650.00,0.0067
3649.00,0.0067
3648.00,0.0065
3647.00,0.0064
3646.00,0.0063
3645.00,0.0063
3644.00,0.0063
3643.00,0.0062
3642.00,0.0061
3641.00,0.0061
3640.00,0.0061
3639.00,0.0061
3638.00,0.0060
3637.00,0.0061
3636.00,0.0061
3635.00,0.0062
3634.00,0.0062
3633.00,0.0063
3632.00,0.0064
3631.00,0.0066
3630.00,0.0068
3629.00,0.0069
3628.00,0.0068
3627.00,0.0068
3626.00,0.0067
3625.00,0.0067
3624.00,0.0066
3623.00,0.0066
3622.00,0.0066
3621.00,0.0066
3620.00,0.0066
3619.00,0.0066
3618.00,0.0067
3617.00,0.0068
3616.00,0.0069
3615.00,0.0069
3614.00,0.0069
3613.00,0.0069
3612.00,0.0070
3611.00,0.0070
3610.00,0.0071
3609.00,0.0070
3608.00,0.0068
3607.00,0.0067
3606.00,0.0066
3605.00,0.0066
3604.00,0.0066
3603.00,0.0065
3602.00,0.0064
3601.00,0.0064
3600.00,0.0065
3599.00,0.0065
3598.00,0.0065
3597.00,0.0065
3596.00,0.0065
3595.00,0.0065
3594.00,0.0066
3593.00,0.0067
3592.00,0.0068
3591.00,0.0069
3590.00,0.0069
3589.00,0.0068
3588.00,0.0067
3587.00,0.0066
3586.00,0.0066
3585.00,0.0066
3584.00,0.0066
3583.00,0.0066
3582.00,0.0065
3581.00,0.0065
3580.00,0.0065
3579.00,0.0065
3578.00,0.0065
3577.00,0.0065
3576.00,0.0065
3575.00,0.0065
3574.00,0.0065
3573.00,0.0066
3572.00,0.0066
3571.00,0.0066
3570.00,0.0067
3569.00,0.0067
3568.00,0.0068
3567.00,0.0068
3566.00,0.0068
3565.00,0.0068
3564.00,0.0068
3563.00,0.0068
3562.00,0.0067
3561.00,0.0066
3560.00,0.0065
3559.00,0.0065
3558.00,0.0065
3557.00,0.0066
3556.00,0.0066
3555.00,0.0066
3554.00,0.0066
3553.00,0.0067
3552.00,0.0067
3551.00,0.0067
3550.00,0.0068
3549.00,0.0069
3548.00,0.0070
3547.00,0.0070
3546.00,0.0070
3545.00,0.0070
3544.00,0.0069
3543.00,0.0069
3542.00,0.0068
3541.00,0.0067
3540.00,0.0067
3539.00,0.0067
3538.00,0.0066
3537.00,0.0066
3536.00,0.0067
3535.00,0.0067
3534.00,0.0068
3533.00,0.0068
3532.00,0.0068
3531.00,0.0068
3530.00,0.0068
3529.00,0.0068
3528.00,0.0068
3527.00,0.0069
3526.00,0.0069
3525.00,0.0069
3524.00,0.0069
3523.00,0.0069
3522.00,0.0069
3521.00,0.0069
3520.00,0.0068
3519.00,0.0068
3518.00,0.0068
3517.00,0.0068
3516.00,0.0068
3515.00,0.0068
3514.00,0.0067
3513.00,0.0067
3512.00,0.0067
3511.00,0.0067
3510.00,0.0067
3509.00,0.0068
3508.00,0.0069
3507.00,0.0069
3506.00,0.0070
3505.00,0.0070
3504.00,0.0070
3503.00,0.0070
3502.00,0.0070
3501.00,0.0070
3500.00,0.0069
3499.00,0.0069
3498.00,0.0069
3497.00,0.0069
3496.00,0.0069
3495.00,0.0069
3494.00,0.0069
3493.00,0.0069
3492.00,0.0069
3491.00,0.0069
3490.00,0.0069
3489.00,0.0069
3488.00,0.0069
3487.00,0.0070
3486.00,0.0070
3485.00,0.0070
3484.00,0.0069
3483.00,0.0069
3482.00,0.0069
3481.00,0.0069
3480.00,0.0069
3479.00,0.0069
3478.00,0.0069
3477.00,0.0069
3476.00,0.0069
3475.00,0.0069
3474.00,0.0068
3473.00,0.0068
3472.00,0.0068
3471.00,0.0068
3470.00,0.0068
3469.00,0.0068
3468.00,0.0069
3467.00,0.0069
3466.00,0.0069
3465.00,0.0069
3464.00,0.0069
3463.00,0.0069
3462.00,0.0069
3461.00,0.0069
3460.00,0.0069
3459.00,0.0068
3458.00,0.0068
3457.00,0.0068
3456.00,0.0068
3455.00,0.0068
3454.00,0.0068
3453.00,0.0069
3452.00,0.0069
3451.00,0.0070
3450.00,0.0070
3449.00,0.0070
3448.00,0.0070
3447.00,0.0070
3446.00,0.0070
3445.00,0.0070
3444.00,0.0070
3443.00,0.0070
3442.00,0.0069
3441.00,0.0069
3440.00,0.0069
3439.00,0.0069
3438.00,0.0069
3437.00,0.0069
3436.00,0.0070
3435.00,0.0070
3434.00,0.0070
3433.00,0.0070
3432.00,0.0070
3431.00,0.0070
3430.00,0.0069
3429.00,0.0069
3428.00,0.0069
3427.00,0.0069
3426.00,0.0070
3425.00,0.0070
3424.00,0.0070
3423.00,0.0070
3422.00,0.0070
3421.00,0.0070
3420.00,0.0071
3419.00,0.0071
3418.00,0.0070
3417.00,0.0070
3416.00,0.0070
3415.00,0.0069
3414.00,0.0070
3413.00,0.0070
3412.00,0.0070
3411.00,0.0070
3410.00,0.0070
3409.00,0.0069
3408.00,0.0070
3407.00,0.0070
3406.00,0.0070
3405.00,0.0070
3404.00,0.0070
3403.00,0.0070
3402.00,0.0070
3401.00,0.0070
3400.00,0.0070
3399.00,0.0070
3398.00,0.0070
3397.00,0.0070
3396.00,0.0070
3395.00,0.0071
3394.00,0.0071
3393.00,0.0071
3392.00,0.0071
3391.00,0.0071
3390.00,0.0071
3389.00,0.0071
3388.00,0.0071
3387.00,0.0070
3386.00,0.0070
3385.00,0.0070
3384.00,0.0070
3383.00,0.0070
3382.00,0.0070
3381.00,0.0070
3380.00,0.0070
3379.00,0.0070
3378.00,0.0071
3377.00,0.0071
3376.00,0.0072
3375.00,0.0072
3374.00,0.0071
3373.00,0.0071
3372.00,0.0071
3371.00,0.0070
3370.00,0.0070
3369.00,0.0070
3368.00,0.0070
3367.00,0.0071
3366.00,0.0071
3365.00,0.0071
3364.00,0.0071
3363.00,0.0071
3362.00,0.0071
3361.00,0.0071
3360.00,0.0071
3359.00,0.0071
3358.00,0.0071
3357.00,0.0071
3356.00,0.0071
3355.00,0.0070
3354.00,0.0070
3353.00,0.0070
3352.00,0.0071
3351.00,0.0071
3350.00,0.0071
3349.00,0.0071
3348.00,0.0071
3347.00,0.0071
3346.00,0.0071
3345.00,0.0071
3344.00,0.0071
3343.00,0.0071
3342.00,0.0072
3341.00,0.0072
3340.00,0.0072
3339.00,0.0071
3338.00,0.0071
3337.00,0.0071
3336.00,0.0071
3335.00,0.0071
3334.00,0.0071
3333.00,0.0071
3332.00,0.0072
3331.00,0.0072
3330.00,0.0072
3329.00,0.0072
3328.00,0.0072
3327.00,0.0072
3326.00,0.0072
3325.00,0.0071
3324.00,0.0071
3323.00,0.0071
3322.00,0.0071
3321.00,0.0072
3320.00,0.0072
3319.00,0.0073
3318.00,0.0073
3317.00,0.0073
3316.00,0.0072
3315.00,0.0072
3314.00,0.0072
3313.00,0.0072
3312.00,0.0072
3311.00,0.0071
3310.00,0.0071
3309.00,0.0071
3308.00,0.0072
3307.00,0.0072
3306.00,0.0072
3305.00,0.0072
3304.00,0.0071
3303.00,0.0071
3302.00,0.0071
3301.00,0.0072
3300.00,0.0072
3299.00,0.0073
3298.00,0.0073
3297.00,0.0073
3296.00,0.0073
3295.00,0.0073
3294.00,0.0073
3293.00,0.0073
3292.00,0.0073
3291.00,0.0073
3290.00,0.0073
3289.00,0.0072
3288.00,0.0072
3287.00,0.0072
3286.00,0.0072
3285.00,0.0072
3284.00,0.0072
3283.00,0.0072
3282.00,0.0071
3281.00,0.0071
3280.00,0.0072
3279.00,0.0072
3278.00,0.0072
3277.00,0.0073
3276.00,0.0073
3275.00,0.0073
3274.00,0.0073
3273.00,0.0073
3272.00,0.0073
3271.00,0.0073
3270.00,0.0073
3269.00,0.0073
3268.00,0.0073
3267.00,0.0073
3266.00,0.0073
3265.00,0.0073
3264.00,0.0073
3263.00,0.0072
3262.00,0.0072
3261.00,0.0072
3260.00,0.0072
3259.00,0.0072
3258.00,0.0072
3257.00,0.0072
3256.00,0.0072
3255.00,0.0073
3254.00,0.0073
3253.00,0.0073
3252.00,0.0073
3251.00,0.0073
3250.00,0.0073
3249.00,0.0074
3248.00,0.0074
3247.00,0.0074
3246.00,0.0074
3245.00,0.0073
3244.00,0.0073
3243.00,0.0073
3242.00,0.0073
3241.00,0.0073
3240.00,0.0073
3239.00,0.0073
3238.00,0.0073
3237.00,0.0073
3236.00,0.0074
3235.00,0.0074
3234.00,0.0074
3233.00,0.0074
3232.00,0.0074
3231.00,0.0073
3230.00,0.0073
3229.00,0.0073
3228.00,0.0073
3227.00,0.0073
3226.00,0.0074
3225.00,0.0074
3224.00,0.0073
3223.00,0.0073
3222.00,0.0073
3221.00,0.0073
3220.00,0.0073
3219.00,0.0073
3218.00,0.0073
3217.00,0.0073
3216.00,0.0073
3215.00,0.0073
3214.00,0.0073
3213.00,0.0073
3212.00,0.0073
3211.00,0.0073
3210.00,0.0073
3209.00,0.0073
3208.00,0.0073
3207.00,0.0073
3206.00,0.0073
3205.00,0.0073
3204.00,0.0073
3203.00,0.0073
3202.00,0.0073
3201.00,0.0074
3200.00,0.0074
3199.00,0.0074
3198.00,0.0074
3197.00,0.0074
3196.00,0.0074
3195.00,0.0073
3194.00,0.0073
3193.00,0.0073
3192.00,0.0073
3191.00,0.0073
3190.00,0.0073
3189.00,0.0073
3188.00,0.0073
3187.00,0.0073
3186.00,0.0073
3185.00,0.0073
3184.00,0.0073
3183.00,0.0073
3182.00,0.0073
3181.00,0.0073
3180.00,0.0073
3179.00,0.0073
3178.00,0.0073
3177.00,0.0073
3176.00,0.0073
3175.00,0.0073
3174.00,0.0073
3173.00,0.0073
3172.00,0.0073
3171.00,0.0073
3170.00,0.0073
3169.00,0.0074
3168.00,0.0074
3167.00,0.0074
3166.00,0.0073
3165.00,0.0073
3164.00,0.0073
3163.00,0.0073
3162.00,0.0073
3161.00,0.0073
3160.00,0.0073
3159.00,0.0073
3158.00,0.0073
3157.00,0.0073
3156.00,0.0073
3155.00,0.0073
3154.00,0.0072
3153.00,0.0072
3152.00,0.0072
3151.00,0.0072
3150.00,0.0073
3149.00,0.0073
3148.00,0.0073
3147.00,0.0073
3146.00,0.0073
3145.00,0.0073
3144.00,0.0073
3143.00,0.0073
3142.00,0.0073
3141.00,0.0073
3140.00,0.0073
3139.00,0.0073
3138.00,0.0073
3137.00,0.0073
3136.00,0.0073
3135.00,0.0073
3134.00,0.0072
3133.00,0.0072
3132.00,0.0072
3131.00,0.0073
3130.00,0.0073
3129.00,0.0073
3128.00,0.0073
3127.00,0.0073
3126.00,0.0072
3125.00,0.0072
3124.00,0.0072
3123.00,0.0072
3122.00,0.0073
3121.00,0.0073
3120.00,0.0073
3119.00,0.0073
3118.00,0.0073
3117.00,0.0073
3116.00,0.0073
3115.00,0.0072
3114.00,0.0072
3113.00,0.0072
3112.00,0.0072
3111.00,0.0072
3110.00,0.0072
3109.00,0.0072
3108.00,0.0072
3107.00,0.0072
3106.00,0.0072
3105.00,0.0072
3104.00,0.0072
3103.00,0.0073
3102.00,0.0073
3101.00,0.0073
3100.00,0.0073
3099.00,0.0072
3098.00,0.0072
3097.00,0.0071
3096.00,0.0071
3095.00,0.0071
3094.00,0.0071
3093.00,0.0072
3092.00,0.0072
3091.00,0.0072
3090.00,0.0072
3089.00,0.0073
3088.00,0.0073
3087.00,0.0073
3086.00,0.0073
3085.00,0.0073
3084.00,0.0072
3083.00,0.0072
3082.00,0.0072
3081.00,0.0072
3080.00,0.0072
3079.00,0.0073
3078.00,0.0073
3077.00,0.0072
3076.00,0.0072
3075.00,0.0072
3074.00,0.0071
3073.00,0.0071
3072.00,0.0071
3071.00,0.0071
3070.00,0.0071
3069.00,0.0071
3068.00,0.0071
3067.00,0.0071
3066.00,0.0071
3065.00,0.0071
3064.00,0.0071
3063.00,0.0071
3062.00,0.0071
3061.00,0.0071
3060.00,0.0072
3059.00,0.0072
3058.00,0.0071
3057.00,0.0071
3056.00,0.0071
3055.00,0.0070
3054.00,0.0070
3053.00,0.0070
3052.00,0.0070
3051.00,0.0070
3050.00,0.0070
3049.00,0.0071
3048.00,0.0071
3047.00,0.0071
3046.00,0.0071
3045.00,0.0071
3044.00,0.0071
3043.00,0.0071
3042.00,0.0071
3041.00,0.0071
3040.00,0.0071
3039.00,0.0070
3038.00,0.0070
3037.00,0.0070
3036.00,0.0070
3035.00,0.0071
3034.00,0.0071
3033.00,0.0070
3032.00,0.0070
3031.00,0.0070
3030.00,0.0069
3029.00,0.0069
3028.00,0.0069
3027.00,0.0069
3026.00,0.0069
3025.00,0.0069
3024.00,0.0069
3023.00,0.0069
3022.00,0.0069
3021.00,0.0069
3020.00,0.0069
3019.00,0.0069
3018.00,0.0069
3017.00,0.0069
3016.00,0.0069
3015.00,0.0069
3014.00,0.0069
3013.00,0.0069
3012.00,0.0068
3011.00,0.0068
3010.00,0.0067
3009.00,0.0066
3008.00,0.0066
3007.00,0.0066
3006.00,0.0066
3005.00,0.0066
3004.00,0.0066
3003.00,0.0065
3002.00,0.0065
3001.00,0.0065
3000.00,0.0064
2999.00,0.0064
2998.00,0.0064
2997.00,0.0064
2996.00,0.0064
2995.00,0.0064
2994.00,0.0064
2993.00,0.0064
2992.00,0.0063
2991.00,0.0063
2990.00,0.0062
2989.00,0.0062
2988.00,0.0062
2987.00,0.0061
2986.00,0.0061
2985.00,0.0060
2984.00,0.0059
2983.00,0.0058
2982.00,0.0057
2981.00,0.0057
2980.00,0.0057
2979.00,0.0057
2978.00,0.0057
2977.00,0.0058
2976.00,0.0058
2975.00,0.0058
2974.00,0.0058
2973.00,0.0057
2972.00,0.0057
2971.00,0.0056
2970.00,0.0056
2969.00,0.0056
2968.00,0.0056
2967.00,0.0055
2966.00,0.0055
2965.00,0.0054
2964.00,0.0054
2963.00,0.0054
2962.00,0.0054
2961.00,0.0053
2960.00,0.0053
2959.00,0.0053
2958.00,0.0053
2957.00,0.0053
2956.00,0.0053
2955.00,0.0053
2954.00,0.0053
2953.00,0.0054
2952.00,0.0054
2951.00,0.0054
2950.00,0.0055
2949.00,0.0055
2948.00,0.0054
2947.00,0.0054
2946.00,0.0053
2945.00,0.0053
2944.00,0.0053
2943.00,0.0053
2942.00,0.0052
2941.00,0.0051
2940.00,0.0050
2939.00,0.0049
2938.00,0.0048
2937.00,0.0048
2936.00,0.0047
2935.00,0.0046
2934.00,0.0045
2933.00,0.0044
2932.00,0.0042
2931.00,0.0041
2930.00,0.0039
2929.00,0.0038
2928.00,0.0037
2927.00,0.0036
2926.00,0.0036
2925.00,0.0036
2924.00,0.0035
2923.00,0.0035
2922.00,0.0035
2921.00,0.0035
2920.00,0.0035
2919.00,0.0036
2918.00,0.0036
2917.00,0.0036
2916.00,0.0037
2915.00,0.0039
2914.00,0.0041
2913.00,0.0043
2912.00,0.0045
2911.00,0.0046
2910.00,0.0047
2909.00,0.0047
2908.00,0.0048
2907.00,0.0049
2906.00,0.0050
2905.00,0.0051
2904.00,0.0051
2903.00,0.0052
2902.00,0.0052
2901.00,0.0053
2900.00,0.0053
2899.00,0.0053
2898.00,0.0053
2897.00,0.0054
2896.00,0.0054
2895.00,0.0054
2894.00,0.0054
2893.00,0.0054
2892.00,0.0054
2891.00,0.0054
2890.00,0.0055
2889.00,0.0055
2888.00,0.0055
2887.00,0.0055
2886.00,0.0056
2885.00,0.0056
2884.00,0.0056
2883.00,0.0056
2882.00,0.0056
2881.00,0.0056
2880.00,0.0056
2879.00,0.0056
2878.00,0.0056
2877.00,0.0056
2876.00,0.0056
2875.00,0.0056
2874.00,0.0056
2873.00,0.0055
2872.00,0.0055
2871.00,0.0055
2870.00,0.0055
2869.00,0.0054
2868.00,0.0054
2867.00,0.0054
2866.00,0.0053
2865.00,0.0053
2864.00,0.0053
2863.00,0.0052
2862.00,0.0052
2861.00,0.0051
2860.00,0.0051
2859.00,0.0050
2858.00,0.0049
2857.00,0.0048
2856.00,0.0047
2855.00,0.0046
2854.00,0.0046
2853.00,0.0046
2852.00,0.0046
2851.00,0.0047
2850.00,0.0047
2849.00,0.0048
2848.00,0.0049
2847.00,0.0051
2846.00,0.0052
2845.00,0.0053
2844.00,0.0054
2843.00,0.0055
2842.00,0.0056
2841.00,0.0057
2840.00,0.0058
2839.00,0.0058
2838.00,0.0059
2837.00,0.0059
2836.00,0.0059
2835.00,0.0059
2834.00,0.0059
2833.00,0.0059
2832.00,0.0060
2831.00,0.0060
2830.00,0.0060
2829.00,0.0060
2828.00,0.0060
2827.00,0.0060
2826.00,0.0060
2825.00,0.0060
2824.00,0.0061
2823.00,0.0061
2822.00,0.0061
2821.00,0.0061
2820.00,0.0061
2819.00,0.0061
2818.00,0.0061
2817.00,0.0061
2816.00,0.0061
2815.00,0.0060
2814.00,0.0060
2813.00,0.0061
2812.00,0.0061
2811.00,0.0061
2810.00,0.0061
2809.00,0.0060
2808.00,0.0060
2807.00,0.0060
2806.00,0.0060
2805.00,0.0060
2804.00,0.0060
2803.00,0.0060
2802.00,0.0060
2801.00,0.0060
2800.00,0.0060
2799.00,0.0060
2798.00,0.0060
2797.00,0.0060
2796.00,0.0060
2795.00,0.0060
2794.00,0.0061
2793.00,0.0060
2792.00,0.0060
2791.00,0.0060
2790.00,0.0060
2789.00,0.0060
2788.00,0.0060
2787.00,0.0060
2786.00,0.0060
2785.00,0.0060
2784.00,0.0060
2783.00,0.0060
2782.00,0.0060
2781.00,0.0060
2780.00,0.0060
2779.00,0.0060
2778.00,0.0060
2777.00,0.0060
2776.00,0.0060
2775.00,0.0060
2774.00,0.0059
2773.00,0.0059
2772.00,0.0059
2771.00,0.0060
2770.00,0.0060
2769.00,0.0060
2768.00,0.0060
2767.00,0.0060
2766.00,0.0060
2765.00,0.0060
2764.00,0.0060
2763.00,0.0059
2762.00,0.0059
2761.00,0.0059
2760.00,0.0059
2759.00,0.0059
2758.00,0.0059
2757.00,0.0059
2756.00,0.0060
2755.00,0.0060
