Created as New Dataset,
cm-1,A
4000.00,0.0164
3999.00,0.0164
3998.00,0.0163
3997.00,0.0165
3996.00,0.0165
3995.00,0.0165
3994.00,0.0166
3993.00,0.0166
3992.00,0.0166
3991.00,0.0166
3990.00,0.0165
3989.00,0.0165
3988.00,0.0165
3987.00,0.0165
3986.00,0.0165
3985.00,0.0165
3984.00,0.0165
3983.00,0.0165
3982.00,0.0165
3981.00,0.0165
3980.00,0.0165
3979.00,0.0165
3978.00,0.0166
3977.00,0.0166
3976.00,0.0166
3975.00,0.0166
3974.00,0.0166
3973.00,0.0166
3972.00,0.0166
3971.00,0.0166
3970.00,0.0166
3969.00,0.0165
3968.00,0.0165
3967.00,0.0164
3966.00,0.0164
3965.00,0.0165
3964.00,0.0165
3963.00,0.0165
3962.00,0.0166
3961.00,0.0166
3960.00,0.0166
3959.00,0.0166
3958.00,0.0166
3957.00,0.0165
3956.00,0.0165
3955.00,0.0165
3954.00,0.0166
3953.00,0.0166
3952.00,0.0167
3951.00,0.0167
3950.00,0.0167
3949.00,0.0167
3948.00,0.0167
3947.00,0.0167
3946.00,0.0168
3945.00,0.0169
3944.00,0.0170
3943.00,0.0169
3942.00,0.0168
3941.00,0.0168
3940.00,0.0168
3939.00,0.0167
3938.00,0.0166
3937.00,0.0166
3936.00,0.0166
3935.00,0.0166
3934.00,0.0167
3933.00,0.0167
3932.00,0.0168
3931.00,0.0168
3930.00,0.0169
3929.00,0.0169
3928.00,0.0169
3927.00,0.0169
3926.00,0.0169
3925.00,0.0168
3924.00,0.0167
3923.00,0.0167
3922.00,0.0168
3921.00,0.0168
3920.00,0.0167
3919.00,0.0167
3918.00,0.0167
3917.00,0.0167
3916.00,0.0167
3915.00,0.0166
3914.00,0.0166
3913.00,0.0165
3912.00,0.0165
3911.00,0.0164
3910.00,0.0165
3909.00,0.0165
3908.00,0.0167
3907.00,0.0168
3906.00,0.0168
3905.00,0.0167
3904.00,0.0167
3903.00,0.0168
3902.00,0.0171
3901.00,0.0173
3900.00,0.0173
3899.00,0.0172
3898.00,0.0170
3897.00,0.0169
3896.00,0.0169
3895.00,0.0168
3894.00,0.0168
3893.00,0.0168
3892.00,0.0167
3891.00,0.0165
3890.00,0.0164
3889.00,0.0166
3888.00,0.0168
3887.00,0.0169
3886.00,0.0168
3885.00,0.0167
3884.00,0.0170
3883.00,0.0174
3882.00,0.0176
3881.00,0.0174
3880.00,0.0170
3879.00,0.0168
3878.00,0.0168
3877.00,0.0170
3876.00,0.0171
3875.00,0.0170
3874.00,0.0168
3873.00,0.0168
3872.00,0.0170
3871.00,0.0171
3870.00,0.0169
3869.00,0.0167
3868.00,0.0168
3867.00,0.0170
3866.00,0.0171
3865.00,0.0169
3864.00,0.0167
3863.00,0.0168
3862.00,0.0168
3861.00,0.0168
3860.00,0.0166
3859.00,0.0165
3858.00,0.0164
3857.00,0.0165
3856.00,0.0167
3855.00,0.0168
3854.00,0.0167
3853.00,0.0166
3852.00,0.0167
3851.00,0.0169
3850.00,0.0169
3849.00,0.0167
3848.00,0.0165
3847.00,0.0164
3846.00,0.0163
3845.00,0.0164
3844.00,0.0163
3843.00,0.0163
3842.00,0.0164
3841.00,0.0166
3840.00,0.0167
3839.00,0.0167
3838.00,0.0167
3837.00,0.0167
3836.00,0.0167
3835.00,0.0167
3834.00,0.0167
3833.00,0.0167
3832.00,0.0165
3831.00,0.0164
3830.00,0.0164
3829.00,0.0166
3828.00,0.0166
3827.00,0.0164
3826.00,0.0162
3825.00,0.0162
3824.00,0.0164
3823.00,0.0166
3822.00,0.0165
3821.00,0.0162
3820.00,0.0162
3819.00,0.0164
3818.00,0.0168
3817.00,0.0168
3816.00,0.0164
3815.00,0.0162
3814.00,0.0162
3813.00,0.0163
3812.00,0.0162
3811.00,0.0160
3810.00,0.0159
3809.00,0.0160
3808.00,0.0159
3807.00,0.0158
3806.00,0.0157
3805.00,0.0160
3804.00,0.0164
3803.00,0.0166
3802.00,0.0165
3801.00,0.0163
3800.00,0.0164
3799.00,0.0166
3798.00,0.0167
3797.00,0.0165
3796.00,0.0163
3795.00,0.0162
3794.00,0.0163
3793.00,0.0163
3792.00,0.0162
3791.00,0.0161
3790.00,0.0160
3789.00,0.0160
3788.00,0.0160
3787.00,0.0160
3786.00,0.0160
3785.00,0.0160
3784.00,0.0160
3783.00,0.0161
3782.00,0.0162
3781.00,0.0163
3780.00,0.0162
3779.00,0.0160
3778.00,0.0160
3777.00,0.0160
3776.00,0.0160
3775.00,0.0159
3774.00,0.0158
3773.00,0.0157
3772.00,0.0158
3771.00,0.0158
3770.00,0.0157
3769.00,0.0158
3768.00,0.0160
3767.00,0.0161
3766.00,0.0161
3765.00,0.0160
3764.00,0.0159
3763.00,0.0160
3762.00,0.0162
3761.00,0.0162
3760.00,0.0161
3759.00,0.0160
3758.00,0.0160
3757.00,0.0159
3756.00,0.0159
3755.00,0.0158
3754.00,0.0157
3753.00,0.0154
3752.00,0.0151
3751.00,0.0150
3750.00,0.0152
3749.00,0.0154
3748.00,0.0158
3747.00,0.0162
3746.00,0.0165
3745.00,0.0163
3744.00,0.0159
3743.00,0.0158
3742.00,0.0159
3741.00,0.0159
3740.00,0.0157
3739.00,0.0155
3738.00,0.0155
3737.00,0.0155
3736.00,0.0156
3735.00,0.0157
3734.00,0.0159
3733.00,0.0159
3732.00,0.0158
3731.00,0.0155
3730.00,0.0154
3729.00,0.0155
3728.00,0.0155
3727.00,0.0154
3726.00,0.0154
3725.00,0.0156
3724.00,0.0158
3723.00,0.0158
3722.00,0.0157
3721.00,0.0157
3720.00,0.0156
3719.00,0.0155
3718.00,0.0154
3717.00,0.0152
3716.00,0.0152
3715.00,0.0153
3714.00,0.0153
3713.00,0.0153
3712.00,0.0152
3711.00,0.0153
3710.00,0.0155
3709.00,0.0156
3708.00,0.0156
3707.00,0.0154
3706.00,0.0153
3705.00,0.0153
3704.00,0.0154
3703.00,0.0155
3702.00,0.0156
3701.00,0.0156
3700.00,0.0155
3699.00,0.0155
3698.00,0.0155
3697.00,0.0154
3696.00,0.0153
3695.00,0.0153
3694.00,0.0154
3693.00,0.0155
3692.00,0.0156
3691.00,0.0156
3690.00,0.0157
3689.00,0.0158
3688.00,0.0157
3687.00,0.0156
3686.00,0.0157
3685.00,0.0156
3684.00,0.0155
3683.00,0.0154
3682.00,0.0153
3681.00,0.0152
3680.00,0.0151
3679.00,0.0151
3678.00,0.0153
3677.00,0.0157
3676.00,0.0159
3675.00,0.0159
3674.00,0.0159
3673.00,0.0162
3672.00,0.0163
3671.00,0.0162
3670.00,0.0160
3669.00,0.0160
3668.00,0.0162
3667.00,0.0162
3666.00,0.0162
3665.00,0.0160
3664.00,0.0159
3663.00,0.0159
3662.00,0.0159
3661.00,0.0159
3660.00,0.0159
3659.00,0.0161
3658.00,0.0163
3657.00,0.0164
3656.00,0.0165
3655.00,0.0167
3654.00,0.0170
3653.00,0.0173
3652.00,0.0174
3651.00,0.0172
3650.00,0.0173
3649.00,0.0179
3648.00,0.0186
3647.00,0.0188
3646.00,0.0186
3645.00,0.0184
3644.00,0.0182
3643.00,0.0181
3642.00,0.0180
3641.00,0.0180
3640.00,0.0181
3639.00,0.0182
3638.00,0.0182
3637.00,0.0183
3636.00,0.0185
3635.00,0.0185
3634.00,0.0184
3633.00,0.0183
3632.00,0.0185
3631.00,0.0188
3630.00,0.0191
3629.00,0.0193
3628.00,0.0196
3627.00,0.0198
3626.00,0.0199
3625.00,0.0198
3624.00,0.0197
3623.00,0.0197
3622.00,0.0198
3621.00,0.0201
3620.00,0.0204
3619.00,0.0207
3618.00,0.0209
3617.00,0.0210
3616.00,0.0210
3615.00,0.0209
3614.00,0.0208
3613.00,0.0207
3612.00,0.0207
3611.00,0.0209
3610.00,0.0210
3609.00,0.0212
3608.00,0.0213
3607.00,0.0214
3606.00,0.0215
3605.00,0.0215
3604.00,0.0215
3603.00,0.0215
3602.00,0.0215
3601.00,0.0216
3600.00,0.0216
3599.00,0.0217
3598.00,0.0219
3597.00,0.0220
3596.00,0.0222
3595.00,0.0223
3594.00,0.0223
3593.00,0.0223
3592.00,0.0222
3591.00,0.0223
3590.00,0.0224
3589.00,0.0226
3588.00,0.0229
3587.00,0.0231
3586.00,0.0233
3585.00,0.0234
3584.00,0.0233
3583.00,0.0232
3582.00,0.0231
3581.00,0.0231
3580.00,0.0232
3579.00,0.0233
3578.00,0.0233
3577.00,0.0233
3576.00,0.0233
3575.00,0.0233
3574.00,0.0234
3573.00,0.0234
3572.00,0.0235
3571.00,0.0236
3570.00,0.0239
3569.00,0.0241
3568.00,0.0245
3567.00,0.0248
3566.00,0.0251
3565.00,0.0252
3564.00,0.0252
3563.00,0.0250
3562.00,0.0248
3561.00,0.0247
3560.00,0.0246
3559.00,0.0245
3558.00,0.0245
3557.00,0.0245
3556.00,0.0244
3555.00,0.0245
3554.00,0.0245
3553.00,0.0247
3552.00,0.0248
3551.00,0.0249
3550.00,0.0251
3549.00,0.0251
3548.00,0.0252
3547.00,0.0254
3546.00,0.0255
3545.00,0.0256
3544.00,0.0256
3543.00,0.0256
3542.00,0.0255
3541.00,0.0255
3540.00,0.0255
3539.00,0.0256
3538.00,0.0256
3537.00,0.0257
3536.00,0.0257
3535.00,0.0258
3534.00,0.0258
3533.00,0.0259
3532.00,0.0259
3531.00,0.0259
3530.00,0.0260
3529.00,0.0260
3528.00,0.0262
3527.00,0.0263
3526.00,0.0265
3525.00,0.0266
3524.00,0.0267
3523.00,0.0268
3522.00,0.0268
3521.00,0.0267
3520.00,0.0267
3519.00,0.0267
3518.00,0.0267
3517.00,0.0267
3516.00,0.0268
3515.00,0.0268
3514.00,0.0269
3513.00,0.0269
3512.00,0.0270
3511.00,0.0271
3510.00,0.0272
3509.00,0.0273
3508.00,0.0273
3507.00,0.0273
3506.00,0.0274
3505.00,0.0274
3504.00,0.0274
3503.00,0.0275
3502.00,0.0277
3501.00,0.0278
3500.00,0.0279
3499.00,0.0279
3498.00,0.0279
3497.00,0.0279
3496.00,0.0279
3495.00,0.0279
3494.00,0.0279
3493.00,0.0279
3492.00,0.0279
3491.00,0.0279
3490.00,0.0279
3489.00,0.0279
3488.00,0.0280
3487.00,0.0282
3486.00,0.0283
3485.00,0.0284
3484.00,0.0285
3483.00,0.0286
3482.00,0.0286
3481.00,0.0286
3480.00,0.0287
3479.00,0.0287
3478.00,0.0288
3477.00,0.0288
3476.00,0.0288
3475.00,0.0289
3474.00,0.0289
3473.00,0.0290
3472.00,0.0291
3471.00,0.0291
3470.00,0.0291
3469.00,0.0291
3468.00,0.0292
3467.00,0.0292
3466.00,0.0292
3465.00,0.0293
3464.00,0.0293
3463.00,0.0294
3462.00,0.0294
3461.00,0.0294
3460.00,0.0294
3459.00,0.0295
3458.00,0.0295
3457.00,0.0296
3456.00,0.0297
3455.00,0.0297
3454.00,0.0298
3453.00,0.0299
3452.00,0.0299
3451.00,0.0299
3450.00,0.0299
3449.00,0.0300
3448.00,0.0301
3447.00,0.0301
3446.00,0.0302
3445.00,0.0302
3444.00,0.0302
3443.00,0.0303
3442.00,0.0303
3441.00,0.0303
3440.00,0.0304
3439.00,0.0304
3438.00,0.0304
3437.00,0.0304
3436.00,0.0304
3435.00,0.0305
3434.00,0.0305
3433.00,0.0306
3432.00,0.0307
3431.00,0.0307
3430.00,0.0307
3429.00,0.0307
3428.00,0.0307
3427.00,0.0308
3426.00,0.0309
3425.00,0.0309
3424.00,0.0310
3423.00,0.0310
3422.00,0.0310
3421.00,0.0310
3420.00,0.0311
3419.00,0.0311
3418.00,0.0312
3417.00,0.0312
3416.00,0.0312
3415.00,0.0312
3414.00,0.0313
3413.00,0.0313
3412.00,0.0314
3411.00,0.0315
3410.00,0.0315
3409.00,0.0315
3408.00,0.0315
3407.00,0.0316
3406.00,0.0317
3405.00,0.0317
3404.00,0.0318
3403.00,0.0319
3402.00,0.0319
3401.00,0.0319
3400.00,0.0319
3399.00,0.0318
3398.00,0.0318
3397.00,0.0319
3396.00,0.0319
3395.00,0.0319
3394.00,0.0320
3393.00,0.0320
3392.00,0.0321
3391.00,0.0321
3390.00,0.0321
3389.00,0.0321
3388.00,0.0321
3387.00,0.0322
3386.00,0.0322
3385.00,0.0323
3384.00,0.0324
3383.00,0.0323
3382.00,0.0323
3381.00,0.0323
3380.00,0.0323
3379.00,0.0323
3378.00,0.0324
3377.00,0.0324
3376.00,0.0325
3375.00,0.0325
3374.00,0.0326
3373.00,0.0326
3372.00,0.0326
3371.00,0.0325
3370.00,0.0325
3369.00,0.0325
3368.00,0.0325
3367.00,0.0326
3366.00,0.0327
3365.00,0.0327
3364.00,0.0328
3363.00,0.0329
3362.00,0.0329
3361.00,0.0329
3360.00,0.0329
3359.00,0.0329
3358.00,0.0329
3357.00,0.0329
3356.00,0.0329
3355.00,0.0329
3354.00,0.0329
3353.00,0.0329
3352.00,0.0329
3351.00,0.0329
3350.00,0.0329
3349.00,0.0329
3348.00,0.0330
3347.00,0.0330
3346.00,0.0330
3345.00,0.0331
3344.00,0.0331
3343.00,0.0332
3342.00,0.0332
3341.00,0.0332
3340.00,0.0332
3339.00,0.0333
3338.00,0.0333
3337.00,0.0333
3336.00,0.0333
3335.00,0.0333
3334.00,0.0333
3333.00,0.0333
3332.00,0.0334
3331.00,0.0334
3330.00,0.0334
3329.00,0.0334
3328.00,0.0334
3327.00,0.0334
3326.00,0.0335
3325.00,0.0335
3324.00,0.0336
3323.00,0.0336
3322.00,0.0336
3321.00,0.0335
3320.00,0.0335
3319.00,0.0334
3318.00,0.0334
3317.00,0.0334
3316.00,0.0335
3315.00,0.0335
3314.00,0.0335
3313.00,0.0335
3312.00,0.0335
3311.00,0.0336
3310.00,0.0336
3309.00,0.0337
3308.00,0.0337
3307.00,0.0337
3306.00,0.0338
3305.00,0.0338
3304.00,0.0339
3303.00,0.0339
3302.00,0.0339
3301.00,0.0338
3300.00,0.0338
3299.00,0.0337
3298.00,0.0337
3297.00,0.0337
3296.00,0.0337
3295.00,0.0338
3294.00,0.0338
3293.00,0.0338
3292.00,0.0338
3291.00,0.0338
3290.00,0.0338
3289.00,0.0338
3288.00,0.0338
3287.00,0.0338
3286.00,0.0339
3285.00,0.0339
3284.00,0.0340
3283.00,0.0340
3282.00,0.0340
3281.00,0.0339
3280.00,0.0339
3279.00,0.0339
3278.00,0.0340
3277.00,0.0340
3276.00,0.0340
3275.00,0.0341
3274.00,0.0341
3273.00,0.0342
3272.00,0.0342
3271.00,0.0341
3270.00,0.0341
3269.00,0.0341
3268.00,0.0341
3267.00,0.0341
3266.00,0.0341
3265.00,0.0341
3264.00,0.0341
3263.00,0.0341
3262.00,0.0342
3261.00,0.0342
3260.00,0.0342
3259.00,0.0342
3258.00,0.0342
3257.00,0.0343
3256.00,0.0343
3255.00,0.0343
3254.00,0.0343
3253.00,0.0343
3252.00,0.0342
3251.00,0.0342
3250.00,0.0342
3249.00,0.0343
3248.00,0.0343
3247.00,0.0344
3246.00,0.0345
3245.00,0.0345
3244.00,0.0344
3243.00,0.0344
3242.00,0.0343
3241.00,0.0343
3240.00,0.0344
3239.00,0.0344
3238.00,0.0345
3237.00,0.0345
3236.00,0.0345
3235.00,0.0345
3234.00,0.0345
3233.00,0.0346
3232.00,0.0346
3231.00,0.0347
3230.00,0.0347
3229.00,0.0348
3228.00,0.0347
3227.00,0.0347
3226.00,0.0347
3225.00,0.0346
3224.00,0.0346
3223.00,0.0346
3222.00,0.0347
3221.00,0.0347
3220.00,0.0346
3219.00,0.0346
3218.00,0.0346
3217.00,0.0346
3216.00,0.0346
3215.00,0.0346
3214.00,0.0346
3213.00,0.0347
3212.00,0.0347
3211.00,0.0348
3210.00,0.0348
3209.00,0.0347
3208.00,0.0347
3207.00,0.0347
3206.00,0.0347
3205.00,0.0347
3204.00,0.0347
3203.00,0.0347
3202.00,0.0347
3201.00,0.0348
3200.00,0.0347
3199.00,0.0347
3198.00,0.0347
3197.00,0.0347
3196.00,0.0347
3195.00,0.0347
3194.00,0.0347
3193.00,0.0347
3192.00,0.0346
3191.00,0.0346
3190.00,0.0346
3189.00,0.0346
3188.00,0.0346
3187.00,0.0346
3186.00,0.0346
3185.00,0.0346
3184.00,0.0346
3183.00,0.0346
3182.00,0.0346
3181.00,0.0346
3180.00,0.0346
3179.00,0.0345
3178.00,0.0345
3177.00,0.0345
3176.00,0.0345
3175.00,0.0345
3174.00,0.0345
3173.00,0.0345
3172.00,0.0345
3171.00,0.0345
3170.00,0.0345
3169.00,0.0344
3168.00,0.0344
3167.00,0.0344
3166.00,0.0345
3165.00,0.0345
3164.00,0.0345
3163.00,0.0345
3162.00,0.0344
3161.00,0.0344
3160.00,0.0344
3159.00,0.0344
3158.00,0.0344
3157.00,0.0344
3156.00,0.0343
3155.00,0.0343
3154.00,0.0343
3153.00,0.0343
3152.00,0.0342
3151.00,0.0342
3150.00,0.0342
3149.00,0.0342
3148.00,0.0342
3147.00,0.0342
3146.00,0.0342
3145.00,0.0342
3144.00,0.0342
3143.00,0.0342
3142.00,0.0342
3141.00,0.0342
3140.00,0.0342
3139.00,0.0341
3138.00,0.0341
3137.00,0.0341
3136.00,0.0341
3135.00,0.0341
3134.00,0.0340
3133.00,0.0340
3132.00,0.0340
3131.00,0.0340
3130.00,0.0340
3129.00,0.0341
3128.00,0.0341
3127.00,0.0340
3126.00,0.0340
3125.00,0.0340
3124.00,0.0340
3123.00,0.0340
3122.00,0.0340
3121.00,0.0340
3120.00,0.0340
3119.00,0.0340
3118.00,0.0340
3117.00,0.0340
3116.00,0.0340
3115.00,0.0340
3114.00,0.0340
3113.00,0.0340
3112.00,0.0339
3111.00,0.0339
3110.00,0.0338
3109.00,0.0338
3108.00,0.0338
3107.00,0.0338
3106.00,0.0338
3105.00,0.0338
3104.00,0.0338
3103.00,0.0338
3102.00,0.0338
3101.00,0.0338
3100.00,0.0338
3099.00,0.0338
3098.00,0.0338
3097.00,0.0338
3096.00,0.0338
3095.00,0.0338
3094.00,0.0338
3093.00,0.0338
3092.00,0.0337
3091.00,0.0337
3090.00,0.0337
3089.00,0.0337
3088.00,0.0337
3087.00,0.0337
3086.00,0.0337
3085.00,0.0336
3084.00,0.0336
3083.00,0.0335
3082.00,0.0335
3081.00,0.0335
3080.00,0.0335
3079.00,0.0335
3078.00,0.0335
3077.00,0.0336
3076.00,0.0336
3075.00,0.0336
3074.00,0.0335
3073.00,0.0335
3072.00,0.0335
3071.00,0.0335
3070.00,0.0335
3069.00,0.0334
3068.00,0.0334
3067.00,0.0334
3066.00,0.0334
3065.00,0.0335
3064.00,0.0335
3063.00,0.0335
3062.00,0.0334
3061.00,0.0334
3060.00,0.0334
3059.00,0.0333
3058.00,0.0333
3057.00,0.0333
3056.00,0.0332
3055.00,0.0332
3054.00,0.0332
3053.00,0.0333
3052.00,0.0333
3051.00,0.0332
3050.00,0.0331
3049.00,0.0330
3048.00,0.0330
3047.00,0.0330
3046.00,0.0330
3045.00,0.0330
3044.00,0.0329
3043.00,0.0329
3042.00,0.0329
3041.00,0.0329
3040.00,0.0328
3039.00,0.0328
3038.00,0.0328
3037.00,0.0328
3036.00,0.0328
3035.00,0.0328
3034.00,0.0327
3033.00,0.0327
3032.00,0.0327
3031.00,0.0327
3030.00,0.0327
3029.00,0.0326
3028.00,0.0326
3027.00,0.0325
3026.00,0.0324
3025.00,0.0324
3024.00,0.0323
3023.00,0.0323
3022.00,0.0323
3021.00,0.0324
3020.00,0.0324
3019.00,0.0323
3018.00,0.0323
3017.00,0.0322
3016.00,0.0322
3015.00,0.0322
3014.00,0.0322
3013.00,0.0322
3012.00,0.0322
3011.00,0.0321
3010.00,0.0321
3009.00,0.0320
3008.00,0.0320
3007.00,0.0319
3006.00,0.0318
3005.00,0.0318
3004.00,0.0317
3003.00,0.0316
3002.00,0.0316
3001.00,0.0315
3000.00,0.0315
2999.00,0.0314
2998.00,0.0313
2997.00,0.0313
2996.00,0.0312
2995.00,0.0312
2994.00,0.0312
2993.00,0.0311
2992.00,0.0311
2991.00,0.0310
2990.00,0.0310
2989.00,0.0310
2988.00,0.0309
2987.00,0.0309
2986.00,0.0308
2985.00,0.0308
2984.00,0.0307
2983.00,0.0305
2982.00,0.0304
2981.00,0.0304
2980.00,0.0304
2979.00,0.0305
2978.00,0.0306
2977.00,0.0306
2976.00,0.0306
2975.00,0.0306
2974.00,0.0306
2973.00,0.0305
2972.00,0.0304
2971.00,0.0304
2970.00,0.0304
2969.00,0.0304
2968.00,0.0305
2967.00,0.0305
2966.00,0.0306
2965.00,0.0306
2964.00,0.0306
2963.00,0.0306
2962.00,0.0306
2961.00,0.0306
2960.00,0.0306
2959.00,0.0306
2958.00,0.0306
2957.00,0.0306
2956.00,0.0306
2955.00,0.0307
2954.00,0.0307
2953.00,0.0307
2952.00,0.0308
2951.00,0.0308
2950.00,0.0308
2949.00,0.0308
2948.00,0.0308
2947.00,0.0308
2946.00,0.0308
2945.00,0.0309
2944.00,0.0309
2943.00,0.0310
2942.00,0.0310
2941.00,0.0309
2940.00,0.0309
2939.00,0.0309
2938.00,0.0309
2937.00,0.0309
2936.00,0.0310
2935.00,0.0310
2934.00,0.0310
2933.00,0.0310
2932.00,0.0310
2931.00,0.0310
2930.00,0.0310
2929.00,0.0310
2928.00,0.0310
2927.00,0.0309
2926.00,0.0309
2925.00,0.0309
2924.00,0.0309
2923.00,0.0308
2922.00,0.0308
2921.00,0.0308
2920.00,0.0307
2919.00,0.0305
2918.00,0.0303
2917.00,0.0302
2916.00,0.0302
2915.00,0.0302
2914.00,0.0303
2913.00,0.0304
2912.00,0.0304
2911.00,0.0304
2910.00,0.0304
2909.00,0.0304
2908.00,0.0304
2907.00,0.0304
2906.00,0.0304
2905.00,0.0304
2904.00,0.0303
2903.00,0.0303
2902.00,0.0303
2901.00,0.0303
2900.00,0.0302
2899.00,0.0302
2898.00,0.0301
2897.00,0.0300
2896.00,0.0300
2895.00,0.0299
2894.00,0.0299
2893.00,0.0299
2892.00,0.0299
2891.00,0.0299
2890.00,0.0299
2889.00,0.0299
2888.00,0.0299
2887.00,0.0299
2886.00,0.0299
2885.00,0.0299
2884.00,0.0299
2883.00,0.0299
2882.00,0.0299
2881.00,0.0299
2880.00,0.0299
2879.00,0.0298
2878.00,0.0298
2877.00,0.0298
2876.00,0.0297
2875.00,0.0297
2874.00,0.0296
2873.00,0.0296
2872.00,0.0295
2871.00,0.0295
2870.00,0.0295
2869.00,0.0295
2868.00,0.0296
2867.00,0.0296
2866.00,0.0295
2865.00,0.0295
2864.00,0.0295
2863.00,0.0296
2862.00,0.0296
2861.00,0.0296
2860.00,0.0296
2859.00,0.0296
2858.00,0.0297
2857.00,0.0297
2856.00,0.0297
2855.00,0.0296
2854.00,0.0296
2853.00,0.0296
2852.00,0.0296
2851.00,0.0295
2850.00,0.0294
2849.00,0.0293
2848.00,0.0292
2847.00,0.0292
2846.00,0.0291
2845.00,0.0291
2844.00,0.0291
2843.00,0.0291
2842.00,0.0291
2841.00,0.0291
2840.00,0.0290
2839.00,0.0290
2838.00,0.0290
2837.00,0.0290
2836.00,0.0290
2835.00,0.0289
2834.00,0.0289
2833.00,0.0289
2832.00,0.0289
2831.00,0.0289
2830.00,0.0288
2829.00,0.0288
2828.00,0.0288
2827.00,0.0287
2826.00,0.0287
2825.00,0.0287
2824.00,0.0287
2823.00,0.0286
2822.00,0.0286
2821.00,0.0286
2820.00,0.0286
2819.00,0.0286
2818.00,0.0286
2817.00,0.0285
2816.00,0.0285
2815.00,0.0285
2814.00,0.0285
2813.00,0.0285
2812.00,0.0284
2811.00,0.0284
2810.00,0.0283
2809.00,0.0283
2808.00,0.0283
2807.00,0.0283
2806.00,0.0282
2805.00,0.0282
2804.00,0.0282
2803.00,0.0282
2802.00,0.0282
2801.00,0.0282
2800.00,0.0281
2799.00,0.0281
2798.00,0.0281
2797.00,0.0281
2796.00,0.0280
2795.00,0.0280
2794.00,0.0280
2793.00,0.0280
2792.00,0.0279
2791.00,0.0279
2790.00,0.0279
2789.00,0.0279
2788.00,0.0279
2787.00,0.0279
2786.00,0.0279
2785.00,0.0279
2784.00,0.0279
2783.00,0.0278
2782.00,0.0278
2781.00,0.0278
2780.00,0.0277
2779.00,0.0277
2778.00,0.0277
2777.00,0.0277
2776.00,0.0277
2775.00,0.0278
2774.00,0.0277
2773.00,0.0277
2772.00,0.0276
2771.00,0.0276
2770.00,0.0276
2769.00,0.0275
2768.00,0.0275
2767.00,0.0275
2766.00,0.0275
2765.00,0.0275
2764.00,0.0275
2763.00,0.0275
2762.00,0.0275
2761.00,0.0275
2760.00,0.0274
2759.00,0.0274
2758.00,0.0274
2757.00,0.0274
2756.00,0.0274
2755.00,0.0274
2754.00,0.0274
