Created as New Dataset,Monday, April 03 2023
cm-1,A
4000.00,0.0047
3999.00,0.0048
3998.00,0.0048
3997.00,0.0047
3996.00,0.0047
3995.00,0.0047
3994.00,0.0046
3993.00,0.0046
3992.00,0.0046
3991.00,0.0047
3990.00,0.0047
3989.00,0.0046
3988.00,0.0046
3987.00,0.0046
3986.00,0.0046
3985.00,0.0046
3984.00,0.0046
3983.00,0.0047
3982.00,0.0047
3981.00,0.0047
3980.00,0.0046
3979.00,0.0046
3978.00,0.0046
3977.00,0.0046
3976.00,0.0045
3975.00,0.0045
3974.00,0.0045
3973.00,0.0045
3972.00,0.0046
3971.00,0.0046
3970.00,0.0046
3969.00,0.0046
3968.00,0.0046
3967.00,0.0046
3966.00,0.0045
3965.00,0.0045
3964.00,0.0045
3963.00,0.0046
3962.00,0.0046
3961.00,0.0046
3960.00,0.0046
3959.00,0.0045
3958.00,0.0045
3957.00,0.0045
3956.00,0.0045
3955.00,0.0044
3954.00,0.0044
3953.00,0.0044
3952.00,0.0044
3951.00,0.0045
3950.00,0.0046
3949.00,0.0047
3948.00,0.0047
3947.00,0.0047
3946.00,0.0048
3945.00,0.0047
3944.00,0.0046
3943.00,0.0045
3942.00,0.0044
3941.00,0.0044
3940.00,0.0044
3939.00,0.0044
3938.00,0.0044
3937.00,0.0044
3936.00,0.0044
3935.00,0.0044
3934.00,0.0045
3933.00,0.0045
3932.00,0.0045
3931.00,0.0046
3930.00,0.0046
3929.00,0.0046
3928.00,0.0046
3927.00,0.0046
3926.00,0.0046
3925.00,0.0045
3924.00,0.0046
3923.00,0.0046
3922.00,0.0047
3921.00,0.0046
3920.00,0.0046
3919.00,0.0046
3918.00,0.0046
3917.00,0.0046
3916.00,0.0046
3915.00,0.0045
3914.00,0.0045
3913.00,0.0044
3912.00,0.0043
3911.00,0.0043
3910.00,0.0043
3909.00,0.0044
3908.00,0.0045
3907.00,0.0046
3906.00,0.0046
3905.00,0.0046
3904.00,0.0047
3903.00,0.0048
3902.00,0.0050
3901.00,0.0050
3900.00,0.0049
3899.00,0.0048
3898.00,0.0047
3897.00,0.0046
3896.00,0.0046
3895.00,0.0046
3894.00,0.0046
3893.00,0.0046
3892.00,0.0045
3891.00,0.0044
3890.00,0.0044
3889.00,0.0044
3888.00,0.0044
3887.00,0.0043
3886.00,0.0042
3885.00,0.0043
3884.00,0.0044
3883.00,0.0045
3882.00,0.0045
3881.00,0.0043
3880.00,0.0042
3879.00,0.0043
3878.00,0.0045
3877.00,0.0046
3876.00,0.0047
3875.00,0.0046
3874.00,0.0045
3873.00,0.0045
3872.00,0.0046
3871.00,0.0046
3870.00,0.0045
3869.00,0.0045
3868.00,0.0046
3867.00,0.0046
3866.00,0.0046
3865.00,0.0045
3864.00,0.0046
3863.00,0.0046
3862.00,0.0047
3861.00,0.0046
3860.00,0.0046
3859.00,0.0046
3858.00,0.0046
3857.00,0.0047
3856.00,0.0047
3855.00,0.0046
3854.00,0.0045
3853.00,0.0045
3852.00,0.0046
3851.00,0.0046
3850.00,0.0044
3849.00,0.0043
3848.00,0.0042
3847.00,0.0042
3846.00,0.0042
3845.00,0.0042
3844.00,0.0042
3843.00,0.0043
3842.00,0.0044
3841.00,0.0045
3840.00,0.0047
3839.00,0.0047
3838.00,0.0046
3837.00,0.0046
3836.00,0.0045
3835.00,0.0045
3834.00,0.0044
3833.00,0.0044
3832.00,0.0044
3831.00,0.0043
3830.00,0.0043
3829.00,0.0043
3828.00,0.0042
3827.00,0.0041
3826.00,0.0041
3825.00,0.0043
3824.00,0.0045
3823.00,0.0046
3822.00,0.0045
3821.00,0.0045
3820.00,0.0045
3819.00,0.0045
3818.00,0.0046
3817.00,0.0045
3816.00,0.0044
3815.00,0.0044
3814.00,0.0044
3813.00,0.0044
3812.00,0.0043
3811.00,0.0042
3810.00,0.0041
3809.00,0.0041
3808.00,0.0041
3807.00,0.0041
3806.00,0.0042
3805.00,0.0045
3804.00,0.0047
3803.00,0.0047
3802.00,0.0046
3801.00,0.0045
3800.00,0.0044
3799.00,0.0044
3798.00,0.0043
3797.00,0.0042
3796.00,0.0041
3795.00,0.0041
3794.00,0.0041
3793.00,0.0041
3792.00,0.0041
3791.00,0.0041
3790.00,0.0041
3789.00,0.0041
3788.00,0.0041
3787.00,0.0041
3786.00,0.0042
3785.00,0.0042
3784.00,0.0043
3783.00,0.0043
3782.00,0.0043
3781.00,0.0042
3780.00,0.0041
3779.00,0.0041
3778.00,0.0041
3777.00,0.0041
3776.00,0.0041
3775.00,0.0040
3774.00,0.0040
3773.00,0.0040
3772.00,0.0040
3771.00,0.0040
3770.00,0.0040
3769.00,0.0041
3768.00,0.0041
3767.00,0.0041
3766.00,0.0041
3765.00,0.0040
3764.00,0.0040
3763.00,0.0041
3762.00,0.0041
3761.00,0.0042
3760.00,0.0041
3759.00,0.0041
3758.00,0.0041
3757.00,0.0041
3756.00,0.0041
3755.00,0.0042
3754.00,0.0042
3753.00,0.0041
3752.00,0.0041
3751.00,0.0042
3750.00,0.0044
3749.00,0.0045
3748.00,0.0048
3747.00,0.0050
3746.00,0.0050
3745.00,0.0048
3744.00,0.0045
3743.00,0.0043
3742.00,0.0042
3741.00,0.0042
3740.00,0.0043
3739.00,0.0044
3738.00,0.0045
3737.00,0.0046
3736.00,0.0046
3735.00,0.0046
3734.00,0.0045
3733.00,0.0044
3732.00,0.0042
3731.00,0.0041
3730.00,0.0041
3729.00,0.0041
3728.00,0.0041
3727.00,0.0041
3726.00,0.0040
3725.00,0.0040
3724.00,0.0040
3723.00,0.0040
3722.00,0.0040
3721.00,0.0040
3720.00,0.0041
3719.00,0.0040
3718.00,0.0040
3717.00,0.0039
3716.00,0.0040
3715.00,0.0040
3714.00,0.0041
3713.00,0.0042
3712.00,0.0043
3711.00,0.0043
3710.00,0.0042
3709.00,0.0041
3708.00,0.0041
3707.00,0.0041
3706.00,0.0043
3705.00,0.0044
3704.00,0.0044
3703.00,0.0043
3702.00,0.0042
3701.00,0.0042
3700.00,0.0043
3699.00,0.0044
3698.00,0.0044
3697.00,0.0043
3696.00,0.0042
3695.00,0.0042
3694.00,0.0042
3693.00,0.0043
3692.00,0.0044
3691.00,0.0045
3690.00,0.0047
3689.00,0.0048
3688.00,0.0047
3687.00,0.0046
3686.00,0.0045
3685.00,0.0043
3684.00,0.0042
3683.00,0.0041
3682.00,0.0041
3681.00,0.0040
3680.00,0.0040
3679.00,0.0040
3678.00,0.0041
3677.00,0.0040
3676.00,0.0040
3675.00,0.0040
3674.00,0.0041
3673.00,0.0043
3672.00,0.0043
3671.00,0.0043
3670.00,0.0044
3669.00,0.0044
3668.00,0.0044
3667.00,0.0044
3666.00,0.0043
3665.00,0.0041
3664.00,0.0041
3663.00,0.0041
3662.00,0.0041
3661.00,0.0042
3660.00,0.0044
3659.00,0.0045
3658.00,0.0046
3657.00,0.0046
3656.00,0.0046
3655.00,0.0047
3654.00,0.0049
3653.00,0.0051
3652.00,0.0051
3651.00,0.0050
3650.00,0.0049
3649.00,0.0051
3648.00,0.0052
3647.00,0.0052
3646.00,0.0051
3645.00,0.0050
3644.00,0.0050
3643.00,0.0050
3642.00,0.0049
3641.00,0.0049
3640.00,0.0050
3639.00,0.0050
3638.00,0.0050
3637.00,0.0051
3636.00,0.0052
3635.00,0.0052
3634.00,0.0053
3633.00,0.0054
3632.00,0.0056
3631.00,0.0057
3630.00,0.0057
3629.00,0.0058
3628.00,0.0059
3627.00,0.0059
3626.00,0.0058
3625.00,0.0056
3624.00,0.0055
3623.00,0.0055
3622.00,0.0056
3621.00,0.0057
3620.00,0.0059
3619.00,0.0060
3618.00,0.0061
3617.00,0.0061
3616.00,0.0062
3615.00,0.0062
3614.00,0.0061
3613.00,0.0061
3612.00,0.0061
3611.00,0.0062
3610.00,0.0063
3609.00,0.0063
3608.00,0.0064
3607.00,0.0063
3606.00,0.0062
3605.00,0.0061
3604.00,0.0060
3603.00,0.0060
3602.00,0.0061
3601.00,0.0063
3600.00,0.0064
3599.00,0.0064
3598.00,0.0063
3597.00,0.0062
3596.00,0.0062
3595.00,0.0062
3594.00,0.0062
3593.00,0.0062
3592.00,0.0062
3591.00,0.0063
3590.00,0.0063
3589.00,0.0064
3588.00,0.0065
3587.00,0.0065
3586.00,0.0066
3585.00,0.0066
3584.00,0.0065
3583.00,0.0065
3582.00,0.0064
3581.00,0.0064
3580.00,0.0063
3579.00,0.0064
3578.00,0.0064
3577.00,0.0065
3576.00,0.0065
3575.00,0.0066
3574.00,0.0066
3573.00,0.0066
3572.00,0.0067
3571.00,0.0067
3570.00,0.0067
3569.00,0.0067
3568.00,0.0067
3567.00,0.0069
3566.00,0.0070
3565.00,0.0069
3564.00,0.0068
3563.00,0.0068
3562.00,0.0067
3561.00,0.0068
3560.00,0.0068
3559.00,0.0068
3558.00,0.0069
3557.00,0.0069
3556.00,0.0070
3555.00,0.0070
3554.00,0.0071
3553.00,0.0071
3552.00,0.0071
3551.00,0.0072
3550.00,0.0073
3549.00,0.0073
3548.00,0.0073
3547.00,0.0073
3546.00,0.0074
3545.00,0.0075
3544.00,0.0075
3543.00,0.0075
3542.00,0.0075
3541.00,0.0074
3540.00,0.0074
3539.00,0.0072
3538.00,0.0071
3537.00,0.0070
3536.00,0.0070
3535.00,0.0071
3534.00,0.0072
3533.00,0.0074
3532.00,0.0074
3531.00,0.0074
3530.00,0.0074
3529.00,0.0073
3528.00,0.0073
3527.00,0.0073
3526.00,0.0073
3525.00,0.0074
3524.00,0.0075
3523.00,0.0076
3522.00,0.0076
3521.00,0.0075
3520.00,0.0074
3519.00,0.0073
3518.00,0.0072
3517.00,0.0072
3516.00,0.0072
3515.00,0.0072
3514.00,0.0073
3513.00,0.0075
3512.00,0.0076
3511.00,0.0077
3510.00,0.0076
3509.00,0.0075
3508.00,0.0075
3507.00,0.0075
3506.00,0.0076
3505.00,0.0076
3504.00,0.0077
3503.00,0.0077
3502.00,0.0078
3501.00,0.0078
3500.00,0.0078
3499.00,0.0078
3498.00,0.0078
3497.00,0.0079
3496.00,0.0079
3495.00,0.0078
3494.00,0.0077
3493.00,0.0077
3492.00,0.0077
3491.00,0.0077
3490.00,0.0077
3489.00,0.0077
3488.00,0.0077
3487.00,0.0077
3486.00,0.0077
3485.00,0.0077
3484.00,0.0077
3483.00,0.0078
3482.00,0.0078
3481.00,0.0078
3480.00,0.0078
3479.00,0.0078
3478.00,0.0078
3477.00,0.0078
3476.00,0.0079
3475.00,0.0079
3474.00,0.0080
3473.00,0.0080
3472.00,0.0080
3471.00,0.0080
3470.00,0.0081
3469.00,0.0081
3468.00,0.0081
3467.00,0.0081
3466.00,0.0081
3465.00,0.0082
3464.00,0.0082
3463.00,0.0082
3462.00,0.0081
3461.00,0.0080
3460.00,0.0080
3459.00,0.0081
3458.00,0.0082
3457.00,0.0082
3456.00,0.0081
3455.00,0.0080
3454.00,0.0080
3453.00,0.0080
3452.00,0.0081
3451.00,0.0082
3450.00,0.0082
3449.00,0.0082
3448.00,0.0082
3447.00,0.0082
3446.00,0.0082
3445.00,0.0083
3444.00,0.0084
3443.00,0.0084
3442.00,0.0083
3441.00,0.0083
3440.00,0.0082
3439.00,0.0082
3438.00,0.0082
3437.00,0.0082
3436.00,0.0082
3435.00,0.0081
3434.00,0.0081
3433.00,0.0081
3432.00,0.0082
3431.00,0.0082
3430.00,0.0082
3429.00,0.0082
3428.00,0.0081
3427.00,0.0081
3426.00,0.0082
3425.00,0.0083
3424.00,0.0085
3423.00,0.0086
3422.00,0.0086
3421.00,0.0086
3420.00,0.0085
3419.00,0.0085
3418.00,0.0085
3417.00,0.0084
3416.00,0.0084
3415.00,0.0083
3414.00,0.0083
3413.00,0.0083
3412.00,0.0084
3411.00,0.0084
3410.00,0.0084
3409.00,0.0085
3408.00,0.0085
3407.00,0.0085
3406.00,0.0085
3405.00,0.0085
3404.00,0.0084
3403.00,0.0084
3402.00,0.0083
3401.00,0.0084
3400.00,0.0084
3399.00,0.0084
3398.00,0.0084
3397.00,0.0084
3396.00,0.0084
3395.00,0.0084
3394.00,0.0084
3393.00,0.0085
3392.00,0.0085
3391.00,0.0086
3390.00,0.0086
3389.00,0.0086
3388.00,0.0086
3387.00,0.0085
3386.00,0.0085
3385.00,0.0084
3384.00,0.0085
3383.00,0.0085
3382.00,0.0085
3381.00,0.0086
3380.00,0.0086
3379.00,0.0086
3378.00,0.0086
3377.00,0.0086
3376.00,0.0086
3375.00,0.0086
3374.00,0.0085
3373.00,0.0085
3372.00,0.0084
3371.00,0.0084
3370.00,0.0083
3369.00,0.0084
3368.00,0.0084
3367.00,0.0084
3366.00,0.0083
3365.00,0.0083
3364.00,0.0082
3363.00,0.0083
3362.00,0.0084
3361.00,0.0085
3360.00,0.0087
3359.00,0.0087
3358.00,0.0087
3357.00,0.0086
3356.00,0.0085
3355.00,0.0085
3354.00,0.0085
3353.00,0.0085
3352.00,0.0085
3351.00,0.0085
3350.00,0.0086
3349.00,0.0086
3348.00,0.0086
3347.00,0.0085
3346.00,0.0085
3345.00,0.0085
3344.00,0.0085
3343.00,0.0084
3342.00,0.0084
3341.00,0.0085
3340.00,0.0085
3339.00,0.0085
3338.00,0.0085
3337.00,0.0085
3336.00,0.0085
3335.00,0.0085
3334.00,0.0085
3333.00,0.0085
3332.00,0.0084
3331.00,0.0084
3330.00,0.0083
3329.00,0.0083
3328.00,0.0083
3327.00,0.0083
3326.00,0.0083
3325.00,0.0084
3324.00,0.0085
3323.00,0.0084
3322.00,0.0084
3321.00,0.0084
3320.00,0.0083
3319.00,0.0083
3318.00,0.0083
3317.00,0.0083
3316.00,0.0083
3315.00,0.0083
3314.00,0.0083
3313.00,0.0082
3312.00,0.0082
3311.00,0.0082
3310.00,0.0083
3309.00,0.0084
3308.00,0.0084
3307.00,0.0085
3306.00,0.0084
3305.00,0.0084
3304.00,0.0083
3303.00,0.0083
3302.00,0.0083
3301.00,0.0082
3300.00,0.0082
3299.00,0.0082
3298.00,0.0082
3297.00,0.0082
3296.00,0.0083
3295.00,0.0083
3294.00,0.0084
3293.00,0.0084
3292.00,0.0083
3291.00,0.0083
3290.00,0.0083
3289.00,0.0083
3288.00,0.0083
3287.00,0.0083
3286.00,0.0084
3285.00,0.0084
3284.00,0.0084
3283.00,0.0084
3282.00,0.0084
3281.00,0.0084
3280.00,0.0083
3279.00,0.0083
3278.00,0.0083
3277.00,0.0083
3276.00,0.0083
3275.00,0.0083
3274.00,0.0083
3273.00,0.0083
3272.00,0.0083
3271.00,0.0084
3270.00,0.0084
3269.00,0.0085
3268.00,0.0085
3267.00,0.0084
3266.00,0.0084
3265.00,0.0083
3264.00,0.0082
3263.00,0.0081
3262.00,0.0082
3261.00,0.0082
3260.00,0.0083
3259.00,0.0083
3258.00,0.0083
3257.00,0.0083
3256.00,0.0082
3255.00,0.0082
3254.00,0.0082
3253.00,0.0083
3252.00,0.0083
3251.00,0.0083
3250.00,0.0083
3249.00,0.0083
3248.00,0.0082
3247.00,0.0082
3246.00,0.0082
3245.00,0.0082
3244.00,0.0082
3243.00,0.0082
3242.00,0.0082
3241.00,0.0082
3240.00,0.0082
3239.00,0.0082
3238.00,0.0082
3237.00,0.0083
3236.00,0.0084
3235.00,0.0085
3234.00,0.0085
3233.00,0.0085
3232.00,0.0084
3231.00,0.0083
3230.00,0.0083
3229.00,0.0082
3228.00,0.0082
3227.00,0.0081
3226.00,0.0081
3225.00,0.0082
3224.00,0.0082
3223.00,0.0082
3222.00,0.0082
3221.00,0.0082
3220.00,0.0081
3219.00,0.0081
3218.00,0.0081
3217.00,0.0081
3216.00,0.0082
3215.00,0.0082
3214.00,0.0083
3213.00,0.0083
3212.00,0.0082
3211.00,0.0081
3210.00,0.0081
3209.00,0.0081
3208.00,0.0081
3207.00,0.0081
3206.00,0.0081
3205.00,0.0081
3204.00,0.0082
3203.00,0.0082
3202.00,0.0082
3201.00,0.0082
3200.00,0.0082
3199.00,0.0082
3198.00,0.0082
3197.00,0.0082
3196.00,0.0081
3195.00,0.0081
3194.00,0.0080
3193.00,0.0080
3192.00,0.0080
3191.00,0.0080
3190.00,0.0080
3189.00,0.0079
3188.00,0.0079
3187.00,0.0078
3186.00,0.0078
3185.00,0.0078
3184.00,0.0079
3183.00,0.0080
3182.00,0.0080
3181.00,0.0080
3180.00,0.0080
3179.00,0.0079
3178.00,0.0078
3177.00,0.0077
3176.00,0.0077
3175.00,0.0078
3174.00,0.0078
3173.00,0.0079
3172.00,0.0079
3171.00,0.0079
3170.00,0.0078
3169.00,0.0078
3168.00,0.0078
3167.00,0.0078
3166.00,0.0078
3165.00,0.0079
3164.00,0.0080
3163.00,0.0081
3162.00,0.0080
3161.00,0.0079
3160.00,0.0078
3159.00,0.0077
3158.00,0.0076
3157.00,0.0075
3156.00,0.0076
3155.00,0.0076
3154.00,0.0077
3153.00,0.0078
3152.00,0.0078
3151.00,0.0077
3150.00,0.0077
3149.00,0.0076
3148.00,0.0077
3147.00,0.0077
3146.00,0.0077
3145.00,0.0076
3144.00,0.0076
3143.00,0.0076
3142.00,0.0076
3141.00,0.0076
3140.00,0.0076
3139.00,0.0076
3138.00,0.0076
3137.00,0.0076
3136.00,0.0077
3135.00,0.0077
3134.00,0.0076
3133.00,0.0076
3132.00,0.0076
3131.00,0.0077
3130.00,0.0077
3129.00,0.0076
3128.00,0.0076
3127.00,0.0075
3126.00,0.0075
3125.00,0.0076
3124.00,0.0076
3123.00,0.0076
3122.00,0.0076
3121.00,0.0075
3120.00,0.0075
3119.00,0.0075
3118.00,0.0076
3117.00,0.0076
3116.00,0.0075
3115.00,0.0075
3114.00,0.0075
3113.00,0.0074
3112.00,0.0074
3111.00,0.0074
3110.00,0.0074
3109.00,0.0074
3108.00,0.0074
3107.00,0.0074
3106.00,0.0075
3105.00,0.0075
3104.00,0.0075
3103.00,0.0075
3102.00,0.0074
3101.00,0.0073
3100.00,0.0073
3099.00,0.0073
3098.00,0.0072
3097.00,0.0073
3096.00,0.0073
3095.00,0.0074
3094.00,0.0075
3093.00,0.0076
3092.00,0.0075
3091.00,0.0075
3090.00,0.0074
3089.00,0.0072
3088.00,0.0071
3087.00,0.0071
3086.00,0.0072
3085.00,0.0072
3084.00,0.0073
3083.00,0.0073
3082.00,0.0073
3081.00,0.0073
3080.00,0.0073
3079.00,0.0073
3078.00,0.0073
3077.00,0.0073
3076.00,0.0073
3075.00,0.0073
3074.00,0.0073
3073.00,0.0073
3072.00,0.0073
3071.00,0.0073
3070.00,0.0074
3069.00,0.0074
3068.00,0.0074
3067.00,0.0073
3066.00,0.0073
3065.00,0.0072
3064.00,0.0071
3063.00,0.0070
3062.00,0.0070
3061.00,0.0071
3060.00,0.0071
3059.00,0.0071
3058.00,0.0071
3057.00,0.0071
3056.00,0.0071
3055.00,0.0071
3054.00,0.0071
3053.00,0.0070
3052.00,0.0071
3051.00,0.0071
3050.00,0.0071
3049.00,0.0071
3048.00,0.0072
3047.00,0.0072
3046.00,0.0072
3045.00,0.0071
3044.00,0.0071
3043.00,0.0070
3042.00,0.0069
3041.00,0.0069
3040.00,0.0069
3039.00,0.0068
3038.00,0.0068
3037.00,0.0069
3036.00,0.0069
3035.00,0.0069
3034.00,0.0069
3033.00,0.0069
3032.00,0.0069
3031.00,0.0069
3030.00,0.0068
3029.00,0.0067
3028.00,0.0067
3027.00,0.0067
3026.00,0.0067
3025.00,0.0067
3024.00,0.0067
3023.00,0.0067
3022.00,0.0067
3021.00,0.0067
3020.00,0.0066
3019.00,0.0066
3018.00,0.0065
3017.00,0.0064
3016.00,0.0064
3015.00,0.0063
3014.00,0.0063
3013.00,0.0062
3012.00,0.0062
3011.00,0.0061
3010.00,0.0061
3009.00,0.0059
3008.00,0.0058
3007.00,0.0056
3006.00,0.0055
3005.00,0.0054
3004.00,0.0053
3003.00,0.0052
3002.00,0.0050
3001.00,0.0049
3000.00,0.0047
2999.00,0.0046
2998.00,0.0045
2997.00,0.0044
2996.00,0.0043
2995.00,0.0043
2994.00,0.0042
2993.00,0.0042
2992.00,0.0041
2991.00,0.0040
2990.00,0.0039
2989.00,0.0038
2988.00,0.0037
2987.00,0.0035
2986.00,0.0032
2985.00,0.0029
2984.00,0.0025
2983.00,0.0022
2982.00,0.0020
2981.00,0.0020
2980.00,0.0022
2979.00,0.0024
2978.00,0.0026
2977.00,0.0028
2976.00,0.0030
2975.00,0.0030
2974.00,0.0030
2973.00,0.0029
2972.00,0.0028
2971.00,0.0028
2970.00,0.0029
2969.00,0.0031
2968.00,0.0033
2967.00,0.0034
2966.00,0.0035
2965.00,0.0036
2964.00,0.0036
2963.00,0.0037
2962.00,0.0038
2961.00,0.0039
2960.00,0.0039
2959.00,0.0039
2958.00,0.0039
2957.00,0.0039
2956.00,0.0040
2955.00,0.0042
2954.00,0.0042
2953.00,0.0043
2952.00,0.0044
2951.00,0.0044
2950.00,0.0045
2949.00,0.0045
2948.00,0.0046
2947.00,0.0046
2946.00,0.0046
2945.00,0.0047
2944.00,0.0048
2943.00,0.0049
2942.00,0.0049
2941.00,0.0049
2940.00,0.0049
2939.00,0.0048
2938.00,0.0048
2937.00,0.0048
2936.00,0.0048
2935.00,0.0048
2934.00,0.0048
2933.00,0.0048
2932.00,0.0048
2931.00,0.0048
2930.00,0.0048
2929.00,0.0047
2928.00,0.0047
2927.00,0.0046
2926.00,0.0046
2925.00,0.0045
2924.00,0.0045
2923.00,0.0044
2922.00,0.0044
2921.00,0.0043
2920.00,0.0042
2919.00,0.0041
2918.00,0.0040
2917.00,0.0039
2916.00,0.0039
2915.00,0.0040
2914.00,0.0041
2913.00,0.0042
2912.00,0.0043
2911.00,0.0044
2910.00,0.0044
2909.00,0.0044
2908.00,0.0044
2907.00,0.0044
2906.00,0.0044
2905.00,0.0044
2904.00,0.0044
2903.00,0.0044
2902.00,0.0044
2901.00,0.0044
2900.00,0.0044
2899.00,0.0043
2898.00,0.0043
2897.00,0.0043
2896.00,0.0043
2895.00,0.0043
2894.00,0.0042
2893.00,0.0042
2892.00,0.0042
2891.00,0.0042
2890.00,0.0042
2889.00,0.0042
2888.00,0.0042
2887.00,0.0043
2886.00,0.0043
2885.00,0.0042
2884.00,0.0042
2883.00,0.0042
2882.00,0.0042
2881.00,0.0042
2880.00,0.0043
2879.00,0.0043
2878.00,0.0044
2877.00,0.0044
2876.00,0.0045
2875.00,0.0044
2874.00,0.0044
2873.00,0.0043
2872.00,0.0044
2871.00,0.0044
2870.00,0.0044
2869.00,0.0045
2868.00,0.0045
2867.00,0.0045
2866.00,0.0045
2865.00,0.0045
2864.00,0.0046
2863.00,0.0046
2862.00,0.0046
2861.00,0.0046
2860.00,0.0046
2859.00,0.0047
2858.00,0.0048
2857.00,0.0048
2856.00,0.0048
2855.00,0.0047
2854.00,0.0047
2853.00,0.0047
2852.00,0.0047
2851.00,0.0047
2850.00,0.0048
2849.00,0.0048
2848.00,0.0048
2847.00,0.0048
2846.00,0.0048
2845.00,0.0048
2844.00,0.0048
2843.00,0.0049
2842.00,0.0049
2841.00,0.0048
2840.00,0.0048
2839.00,0.0048
2838.00,0.0047
2837.00,0.0048
2836.00,0.0048
2835.00,0.0049
2834.00,0.0050
2833.00,0.0049
2832.00,0.0049
2831.00,0.0048
2830.00,0.0048
2829.00,0.0048
2828.00,0.0048
2827.00,0.0049
2826.00,0.0049
2825.00,0.0049
2824.00,0.0049
2823.00,0.0049
2822.00,0.0049
2821.00,0.0048
2820.00,0.0048
2819.00,0.0047
2818.00,0.0047
2817.00,0.0046
2816.00,0.0046
2815.00,0.0046
2814.00,0.0046
2813.00,0.0046
2812.00,0.0046
2811.00,0.0046
2810.00,0.0046
2809.00,0.0047
2808.00,0.0047
2807.00,0.0047
2806.00,0.0047
2805.00,0.0047
2804.00,0.0047
2803.00,0.0047
2802.00,0.0046
2801.00,0.0046
2800.00,0.0047
2799.00,0.0047
2798.00,0.0046
2797.00,0.0046
2796.00,0.0046
2795.00,0.0046
2794.00,0.0046
2793.00,0.0046
2792.00,0.0046
2791.00,0.0046
2790.00,0.0046
2789.00,0.0046
2788.00,0.0046
2787.00,0.0046
2786.00,0.0045
2785.00,0.0045
2784.00,0.0045
2783.00,0.0044
2782.00,0.0044
2781.00,0.0043
2780.00,0.0043
2779.00,0.0043
2778.00,0.0044
2777.00,0.0044
2776.00,0.0045
2775.00,0.0045
2774.00,0.0045
2773.00,0.0045
2772.00,0.0044
2771.00,0.0044
2770.00,0.0043
2769.00,0.0042
2768.00,0.0042
2767.00,0.0042
2766.00,0.0042
2765.00,0.0042
2764.00,0.0043
2763.00,0.0043
2762.00,0.0043
2761.00,0.0043
2760.00,0.0043
2759.00,0.0043
2758.00,0.0043
2757.00,0.0042
2756.00,0.0042
2755.00,0.0042
