Created as New Dataset,Monday, April 03 2023
cm-1,A
4000.00,0.0155
3999.00,0.0155
3998.00,0.0155
3997.00,0.0155
3996.00,0.0154
3995.00,0.0154
3994.00,0.0154
3993.00,0.0154
3992.00,0.0154
3991.00,0.0155
3990.00,0.0155
3989.00,0.0155
3988.00,0.0154
3987.00,0.0154
3986.00,0.0154
3985.00,0.0153
3984.00,0.0153
3983.00,0.0153
3982.00,0.0153
3981.00,0.0153
3980.00,0.0153
3979.00,0.0153
3978.00,0.0153
3977.00,0.0153
3976.00,0.0153
3975.00,0.0153
3974.00,0.0152
3973.00,0.0153
3972.00,0.0153
3971.00,0.0153
3970.00,0.0154
3969.00,0.0154
3968.00,0.0154
3967.00,0.0153
3966.00,0.0152
3965.00,0.0152
3964.00,0.0152
3963.00,0.0153
3962.00,0.0154
3961.00,0.0154
3960.00,0.0153
3959.00,0.0152
3958.00,0.0152
3957.00,0.0152
3956.00,0.0151
3955.00,0.0150
3954.00,0.0150
3953.00,0.0149
3952.00,0.0149
3951.00,0.0150
3950.00,0.0151
3949.00,0.0152
3948.00,0.0152
3947.00,0.0152
3946.00,0.0152
3945.00,0.0151
3944.00,0.0151
3943.00,0.0150
3942.00,0.0149
3941.00,0.0149
3940.00,0.0150
3939.00,0.0150
3938.00,0.0151
3937.00,0.0151
3936.00,0.0151
3935.00,0.0150
3934.00,0.0149
3933.00,0.0149
3932.00,0.0150
3931.00,0.0150
3930.00,0.0150
3929.00,0.0149
3928.00,0.0149
3927.00,0.0149
3926.00,0.0149
3925.00,0.0150
3924.00,0.0150
3923.00,0.0150
3922.00,0.0149
3921.00,0.0149
3920.00,0.0149
3919.00,0.0149
3918.00,0.0150
3917.00,0.0150
3916.00,0.0150
3915.00,0.0150
3914.00,0.0150
3913.00,0.0151
3912.00,0.0151
3911.00,0.0151
3910.00,0.0150
3909.00,0.0149
3908.00,0.0148
3907.00,0.0147
3906.00,0.0145
3905.00,0.0144
3904.00,0.0144
3903.00,0.0144
3902.00,0.0145
3901.00,0.0146
3900.00,0.0147
3899.00,0.0147
3898.00,0.0147
3897.00,0.0147
3896.00,0.0147
3895.00,0.0147
3894.00,0.0147
3893.00,0.0147
3892.00,0.0147
3891.00,0.0146
3890.00,0.0144
3889.00,0.0143
3888.00,0.0143
3887.00,0.0144
3886.00,0.0144
3885.00,0.0144
3884.00,0.0143
3883.00,0.0143
3882.00,0.0144
3881.00,0.0144
3880.00,0.0144
3879.00,0.0144
3878.00,0.0145
3877.00,0.0147
3876.00,0.0148
3875.00,0.0147
3874.00,0.0145
3873.00,0.0143
3872.00,0.0142
3871.00,0.0143
3870.00,0.0144
3869.00,0.0143
3868.00,0.0142
3867.00,0.0142
3866.00,0.0143
3865.00,0.0145
3864.00,0.0146
3863.00,0.0146
3862.00,0.0146
3861.00,0.0146
3860.00,0.0146
3859.00,0.0144
3858.00,0.0142
3857.00,0.0138
3856.00,0.0134
3855.00,0.0134
3854.00,0.0136
3853.00,0.0138
3852.00,0.0138
3851.00,0.0138
3850.00,0.0141
3849.00,0.0143
3848.00,0.0144
3847.00,0.0145
3846.00,0.0145
3845.00,0.0145
3844.00,0.0144
3843.00,0.0143
3842.00,0.0141
3841.00,0.0141
3840.00,0.0141
3839.00,0.0141
3838.00,0.0140
3837.00,0.0139
3836.00,0.0139
3835.00,0.0140
3834.00,0.0141
3833.00,0.0143
3832.00,0.0144
3831.00,0.0144
3830.00,0.0144
3829.00,0.0144
3828.00,0.0144
3827.00,0.0144
3826.00,0.0143
3825.00,0.0142
3824.00,0.0141
3823.00,0.0142
3822.00,0.0143
3821.00,0.0142
3820.00,0.0139
3819.00,0.0137
3818.00,0.0138
3817.00,0.0141
3816.00,0.0143
3815.00,0.0143
3814.00,0.0144
3813.00,0.0145
3812.00,0.0146
3811.00,0.0145
3810.00,0.0143
3809.00,0.0142
3808.00,0.0142
3807.00,0.0142
3806.00,0.0141
3805.00,0.0141
3804.00,0.0141
3803.00,0.0143
3802.00,0.0144
3801.00,0.0144
3800.00,0.0141
3799.00,0.0140
3798.00,0.0141
3797.00,0.0142
3796.00,0.0143
3795.00,0.0143
3794.00,0.0144
3793.00,0.0145
3792.00,0.0147
3791.00,0.0147
3790.00,0.0147
3789.00,0.0147
3788.00,0.0148
3787.00,0.0148
3786.00,0.0148
3785.00,0.0148
3784.00,0.0147
3783.00,0.0146
3782.00,0.0145
3781.00,0.0145
3780.00,0.0145
3779.00,0.0145
3778.00,0.0145
3777.00,0.0145
3776.00,0.0146
3775.00,0.0146
3774.00,0.0146
3773.00,0.0145
3772.00,0.0144
3771.00,0.0143
3770.00,0.0143
3769.00,0.0141
3768.00,0.0141
3767.00,0.0141
3766.00,0.0143
3765.00,0.0144
3764.00,0.0144
3763.00,0.0144
3762.00,0.0144
3761.00,0.0144
3760.00,0.0144
3759.00,0.0143
3758.00,0.0141
3757.00,0.0139
3756.00,0.0138
3755.00,0.0136
3754.00,0.0135
3753.00,0.0133
3752.00,0.0134
3751.00,0.0135
3750.00,0.0135
3749.00,0.0134
3748.00,0.0134
3747.00,0.0135
3746.00,0.0137
3745.00,0.0138
3744.00,0.0137
3743.00,0.0136
3742.00,0.0136
3741.00,0.0139
3740.00,0.0140
3739.00,0.0139
3738.00,0.0138
3737.00,0.0137
3736.00,0.0137
3735.00,0.0136
3734.00,0.0136
3733.00,0.0136
3732.00,0.0137
3731.00,0.0138
3730.00,0.0139
3729.00,0.0140
3728.00,0.0141
3727.00,0.0142
3726.00,0.0142
3725.00,0.0141
3724.00,0.0140
3723.00,0.0140
3722.00,0.0140
3721.00,0.0141
3720.00,0.0142
3719.00,0.0143
3718.00,0.0143
3717.00,0.0143
3716.00,0.0141
3715.00,0.0140
3714.00,0.0140
3713.00,0.0141
3712.00,0.0142
3711.00,0.0142
3710.00,0.0140
3709.00,0.0140
3708.00,0.0141
3707.00,0.0143
3706.00,0.0145
3705.00,0.0146
3704.00,0.0146
3703.00,0.0146
3702.00,0.0146
3701.00,0.0146
3700.00,0.0146
3699.00,0.0147
3698.00,0.0148
3697.00,0.0148
3696.00,0.0147
3695.00,0.0146
3694.00,0.0145
3693.00,0.0144
3692.00,0.0143
3691.00,0.0143
3690.00,0.0145
3689.00,0.0146
3688.00,0.0145
3687.00,0.0145
3686.00,0.0145
3685.00,0.0147
3684.00,0.0148
3683.00,0.0148
3682.00,0.0148
3681.00,0.0146
3680.00,0.0144
3679.00,0.0140
3678.00,0.0138
3677.00,0.0137
3676.00,0.0138
3675.00,0.0137
3674.00,0.0135
3673.00,0.0135
3672.00,0.0138
3671.00,0.0142
3670.00,0.0145
3669.00,0.0146
3668.00,0.0147
3667.00,0.0149
3666.00,0.0151
3665.00,0.0153
3664.00,0.0154
3663.00,0.0154
3662.00,0.0155
3661.00,0.0156
3660.00,0.0156
3659.00,0.0157
3658.00,0.0157
3657.00,0.0158
3656.00,0.0158
3655.00,0.0157
3654.00,0.0156
3653.00,0.0155
3652.00,0.0154
3651.00,0.0153
3650.00,0.0154
3649.00,0.0155
3648.00,0.0155
3647.00,0.0155
3646.00,0.0157
3645.00,0.0159
3644.00,0.0162
3643.00,0.0165
3642.00,0.0166
3641.00,0.0167
3640.00,0.0168
3639.00,0.0168
3638.00,0.0169
3637.00,0.0169
3636.00,0.0169
3635.00,0.0169
3634.00,0.0169
3633.00,0.0167
3632.00,0.0165
3631.00,0.0165
3630.00,0.0167
3629.00,0.0170
3628.00,0.0171
3627.00,0.0170
3626.00,0.0171
3625.00,0.0172
3624.00,0.0173
3623.00,0.0172
3622.00,0.0172
3621.00,0.0172
3620.00,0.0173
3619.00,0.0173
3618.00,0.0172
3617.00,0.0171
3616.00,0.0172
3615.00,0.0173
3614.00,0.0174
3613.00,0.0174
3612.00,0.0174
3611.00,0.0174
3610.00,0.0176
3609.00,0.0178
3608.00,0.0179
3607.00,0.0180
3606.00,0.0179
3605.00,0.0179
3604.00,0.0179
3603.00,0.0179
3602.00,0.0180
3601.00,0.0181
3600.00,0.0182
3599.00,0.0181
3598.00,0.0180
3597.00,0.0179
3596.00,0.0180
3595.00,0.0180
3594.00,0.0180
3593.00,0.0180
3592.00,0.0179
3591.00,0.0179
3590.00,0.0179
3589.00,0.0179
3588.00,0.0181
3587.00,0.0182
3586.00,0.0182
3585.00,0.0183
3584.00,0.0184
3583.00,0.0184
3582.00,0.0185
3581.00,0.0185
3580.00,0.0185
3579.00,0.0185
3578.00,0.0185
3577.00,0.0185
3576.00,0.0186
3575.00,0.0186
3574.00,0.0187
3573.00,0.0187
3572.00,0.0186
3571.00,0.0185
3570.00,0.0183
3569.00,0.0183
3568.00,0.0184
3567.00,0.0185
3566.00,0.0185
3565.00,0.0184
3564.00,0.0184
3563.00,0.0185
3562.00,0.0187
3561.00,0.0189
3560.00,0.0190
3559.00,0.0191
3558.00,0.0191
3557.00,0.0191
3556.00,0.0192
3555.00,0.0193
3554.00,0.0193
3553.00,0.0194
3552.00,0.0194
3551.00,0.0194
3550.00,0.0194
3549.00,0.0194
3548.00,0.0194
3547.00,0.0195
3546.00,0.0195
3545.00,0.0196
3544.00,0.0196
3543.00,0.0196
3542.00,0.0196
3541.00,0.0196
3540.00,0.0196
3539.00,0.0195
3538.00,0.0195
3537.00,0.0195
3536.00,0.0195
3535.00,0.0196
3534.00,0.0197
3533.00,0.0198
3532.00,0.0198
3531.00,0.0198
3530.00,0.0197
3529.00,0.0196
3528.00,0.0195
3527.00,0.0194
3526.00,0.0195
3525.00,0.0197
3524.00,0.0199
3523.00,0.0201
3522.00,0.0201
3521.00,0.0200
3520.00,0.0199
3519.00,0.0198
3518.00,0.0198
3517.00,0.0198
3516.00,0.0198
3515.00,0.0198
3514.00,0.0199
3513.00,0.0200
3512.00,0.0201
3511.00,0.0201
3510.00,0.0200
3509.00,0.0200
3508.00,0.0200
3507.00,0.0200
3506.00,0.0201
3505.00,0.0202
3504.00,0.0203
3503.00,0.0203
3502.00,0.0203
3501.00,0.0202
3500.00,0.0202
3499.00,0.0203
3498.00,0.0204
3497.00,0.0205
3496.00,0.0205
3495.00,0.0205
3494.00,0.0205
3493.00,0.0205
3492.00,0.0204
3491.00,0.0204
3490.00,0.0204
3489.00,0.0204
3488.00,0.0204
3487.00,0.0203
3486.00,0.0203
3485.00,0.0203
3484.00,0.0204
3483.00,0.0205
3482.00,0.0205
3481.00,0.0205
3480.00,0.0205
3479.00,0.0206
3478.00,0.0206
3477.00,0.0206
3476.00,0.0207
3475.00,0.0208
3474.00,0.0208
3473.00,0.0208
3472.00,0.0208
3471.00,0.0208
3470.00,0.0208
3469.00,0.0209
3468.00,0.0209
3467.00,0.0209
3466.00,0.0209
3465.00,0.0210
3464.00,0.0210
3463.00,0.0210
3462.00,0.0208
3461.00,0.0208
3460.00,0.0208
3459.00,0.0209
3458.00,0.0210
3457.00,0.0210
3456.00,0.0209
3455.00,0.0209
3454.00,0.0209
3453.00,0.0209
3452.00,0.0210
3451.00,0.0210
3450.00,0.0211
3449.00,0.0211
3448.00,0.0211
3447.00,0.0211
3446.00,0.0211
3445.00,0.0211
3444.00,0.0212
3443.00,0.0212
3442.00,0.0211
3441.00,0.0210
3440.00,0.0209
3439.00,0.0209
3438.00,0.0209
3437.00,0.0210
3436.00,0.0210
3435.00,0.0210
3434.00,0.0210
3433.00,0.0211
3432.00,0.0211
3431.00,0.0212
3430.00,0.0212
3429.00,0.0211
3428.00,0.0211
3427.00,0.0211
3426.00,0.0212
3425.00,0.0213
3424.00,0.0214
3423.00,0.0215
3422.00,0.0215
3421.00,0.0214
3420.00,0.0213
3419.00,0.0213
3418.00,0.0213
3417.00,0.0213
3416.00,0.0213
3415.00,0.0213
3414.00,0.0213
3413.00,0.0214
3412.00,0.0214
3411.00,0.0214
3410.00,0.0215
3409.00,0.0215
3408.00,0.0215
3407.00,0.0216
3406.00,0.0216
3405.00,0.0216
3404.00,0.0215
3403.00,0.0214
3402.00,0.0214
3401.00,0.0214
3400.00,0.0215
3399.00,0.0215
3398.00,0.0215
3397.00,0.0215
3396.00,0.0214
3395.00,0.0214
3394.00,0.0214
3393.00,0.0214
3392.00,0.0214
3391.00,0.0215
3390.00,0.0215
3389.00,0.0215
3388.00,0.0215
3387.00,0.0215
3386.00,0.0215
3385.00,0.0215
3384.00,0.0216
3383.00,0.0216
3382.00,0.0217
3381.00,0.0217
3380.00,0.0217
3379.00,0.0217
3378.00,0.0217
3377.00,0.0217
3376.00,0.0216
3375.00,0.0216
3374.00,0.0216
3373.00,0.0216
3372.00,0.0215
3371.00,0.0215
3370.00,0.0216
3369.00,0.0216
3368.00,0.0216
3367.00,0.0216
3366.00,0.0215
3365.00,0.0214
3364.00,0.0214
3363.00,0.0214
3362.00,0.0215
3361.00,0.0216
3360.00,0.0217
3359.00,0.0217
3358.00,0.0217
3357.00,0.0217
3356.00,0.0217
3355.00,0.0218
3354.00,0.0218
3353.00,0.0217
3352.00,0.0217
3351.00,0.0217
3350.00,0.0217
3349.00,0.0217
3348.00,0.0217
3347.00,0.0217
3346.00,0.0216
3345.00,0.0216
3344.00,0.0216
3343.00,0.0216
3342.00,0.0216
3341.00,0.0217
3340.00,0.0217
3339.00,0.0218
3338.00,0.0218
3337.00,0.0217
3336.00,0.0217
3335.00,0.0216
3334.00,0.0216
3333.00,0.0216
3332.00,0.0216
3331.00,0.0215
3330.00,0.0215
3329.00,0.0215
3328.00,0.0215
3327.00,0.0215
3326.00,0.0216
3325.00,0.0217
3324.00,0.0217
3323.00,0.0217
3322.00,0.0216
3321.00,0.0216
3320.00,0.0216
3319.00,0.0216
3318.00,0.0216
3317.00,0.0217
3316.00,0.0216
3315.00,0.0216
3314.00,0.0216
3313.00,0.0215
3312.00,0.0215
3311.00,0.0215
3310.00,0.0215
3309.00,0.0215
3308.00,0.0216
3307.00,0.0216
3306.00,0.0217
3305.00,0.0217
3304.00,0.0217
3303.00,0.0216
3302.00,0.0216
3301.00,0.0216
3300.00,0.0216
3299.00,0.0216
3298.00,0.0216
3297.00,0.0216
3296.00,0.0216
3295.00,0.0216
3294.00,0.0216
3293.00,0.0216
3292.00,0.0215
3291.00,0.0216
3290.00,0.0216
3289.00,0.0217
3288.00,0.0217
3287.00,0.0217
3286.00,0.0217
3285.00,0.0218
3284.00,0.0218
3283.00,0.0217
3282.00,0.0217
3281.00,0.0216
3280.00,0.0216
3279.00,0.0215
3278.00,0.0216
3277.00,0.0216
3276.00,0.0216
3275.00,0.0217
3274.00,0.0217
3273.00,0.0217
3272.00,0.0217
3271.00,0.0217
3270.00,0.0218
3269.00,0.0218
3268.00,0.0218
3267.00,0.0218
3266.00,0.0217
3265.00,0.0216
3264.00,0.0216
3263.00,0.0215
3262.00,0.0215
3261.00,0.0216
3260.00,0.0216
3259.00,0.0217
3258.00,0.0217
3257.00,0.0216
3256.00,0.0216
3255.00,0.0215
3254.00,0.0215
3253.00,0.0215
3252.00,0.0216
3251.00,0.0216
3250.00,0.0216
3249.00,0.0216
3248.00,0.0216
3247.00,0.0216
3246.00,0.0215
3245.00,0.0216
3244.00,0.0215
3243.00,0.0215
3242.00,0.0215
3241.00,0.0214
3240.00,0.0214
3239.00,0.0214
3238.00,0.0215
3237.00,0.0216
3236.00,0.0218
3235.00,0.0218
3234.00,0.0219
3233.00,0.0219
3232.00,0.0219
3231.00,0.0218
3230.00,0.0217
3229.00,0.0216
3228.00,0.0215
3227.00,0.0215
3226.00,0.0215
3225.00,0.0215
3224.00,0.0215
3223.00,0.0215
3222.00,0.0215
3221.00,0.0215
3220.00,0.0215
3219.00,0.0215
3218.00,0.0215
3217.00,0.0215
3216.00,0.0215
3215.00,0.0216
3214.00,0.0215
3213.00,0.0215
3212.00,0.0214
3211.00,0.0213
3210.00,0.0213
3209.00,0.0214
3208.00,0.0214
3207.00,0.0215
3206.00,0.0215
3205.00,0.0216
3204.00,0.0216
3203.00,0.0216
3202.00,0.0216
3201.00,0.0215
3200.00,0.0215
3199.00,0.0215
3198.00,0.0215
3197.00,0.0215
3196.00,0.0215
3195.00,0.0215
3194.00,0.0215
3193.00,0.0214
3192.00,0.0214
3191.00,0.0214
3190.00,0.0213
3189.00,0.0213
3188.00,0.0212
3187.00,0.0212
3186.00,0.0212
3185.00,0.0212
3184.00,0.0213
3183.00,0.0214
3182.00,0.0214
3181.00,0.0215
3180.00,0.0215
3179.00,0.0214
3178.00,0.0213
3177.00,0.0212
3176.00,0.0211
3175.00,0.0211
3174.00,0.0211
3173.00,0.0211
3172.00,0.0211
3171.00,0.0211
3170.00,0.0211
3169.00,0.0210
3168.00,0.0211
3167.00,0.0211
3166.00,0.0212
3165.00,0.0213
3164.00,0.0214
3163.00,0.0214
3162.00,0.0213
3161.00,0.0212
3160.00,0.0210
3159.00,0.0209
3158.00,0.0208
3157.00,0.0208
3156.00,0.0208
3155.00,0.0209
3154.00,0.0210
3153.00,0.0210
3152.00,0.0210
3151.00,0.0210
3150.00,0.0210
3149.00,0.0209
3148.00,0.0209
3147.00,0.0209
3146.00,0.0209
3145.00,0.0209
3144.00,0.0209
3143.00,0.0209
3142.00,0.0209
3141.00,0.0208
3140.00,0.0208
3139.00,0.0208
3138.00,0.0208
3137.00,0.0209
3136.00,0.0209
3135.00,0.0209
3134.00,0.0209
3133.00,0.0208
3132.00,0.0208
3131.00,0.0208
3130.00,0.0208
3129.00,0.0208
3128.00,0.0208
3127.00,0.0208
3126.00,0.0208
3125.00,0.0208
3124.00,0.0207
3123.00,0.0207
3122.00,0.0207
3121.00,0.0207
3120.00,0.0207
3119.00,0.0207
3118.00,0.0207
3117.00,0.0207
3116.00,0.0206
3115.00,0.0206
3114.00,0.0206
3113.00,0.0206
3112.00,0.0206
3111.00,0.0206
3110.00,0.0206
3109.00,0.0206
3108.00,0.0206
3107.00,0.0206
3106.00,0.0207
3105.00,0.0207
3104.00,0.0206
3103.00,0.0206
3102.00,0.0205
3101.00,0.0205
3100.00,0.0204
3099.00,0.0204
3098.00,0.0204
3097.00,0.0204
3096.00,0.0205
3095.00,0.0206
3094.00,0.0206
3093.00,0.0206
3092.00,0.0206
3091.00,0.0205
3090.00,0.0204
3089.00,0.0204
3088.00,0.0203
3087.00,0.0203
3086.00,0.0204
3085.00,0.0205
3084.00,0.0205
3083.00,0.0205
3082.00,0.0205
3081.00,0.0205
3080.00,0.0205
3079.00,0.0205
3078.00,0.0204
3077.00,0.0204
3076.00,0.0204
3075.00,0.0204
3074.00,0.0204
3073.00,0.0204
3072.00,0.0204
3071.00,0.0205
3070.00,0.0205
3069.00,0.0205
3068.00,0.0205
3067.00,0.0205
3066.00,0.0204
3065.00,0.0203
3064.00,0.0202
3063.00,0.0202
3062.00,0.0202
3061.00,0.0202
3060.00,0.0203
3059.00,0.0203
3058.00,0.0203
3057.00,0.0203
3056.00,0.0202
3055.00,0.0202
3054.00,0.0202
3053.00,0.0201
3052.00,0.0201
3051.00,0.0202
3050.00,0.0202
3049.00,0.0202
3048.00,0.0203
3047.00,0.0203
3046.00,0.0203
3045.00,0.0203
3044.00,0.0202
3043.00,0.0201
3042.00,0.0199
3041.00,0.0198
3040.00,0.0198
3039.00,0.0198
3038.00,0.0198
3037.00,0.0199
3036.00,0.0199
3035.00,0.0199
3034.00,0.0199
3033.00,0.0199
3032.00,0.0200
3031.00,0.0199
3030.00,0.0198
3029.00,0.0198
3028.00,0.0197
3027.00,0.0197
3026.00,0.0197
3025.00,0.0197
3024.00,0.0196
3023.00,0.0196
3022.00,0.0196
3021.00,0.0196
3020.00,0.0196
3019.00,0.0195
3018.00,0.0195
3017.00,0.0194
3016.00,0.0194
3015.00,0.0194
3014.00,0.0193
3013.00,0.0192
3012.00,0.0192
3011.00,0.0191
3010.00,0.0191
3009.00,0.0190
3008.00,0.0188
3007.00,0.0187
3006.00,0.0187
3005.00,0.0186
3004.00,0.0186
3003.00,0.0185
3002.00,0.0183
3001.00,0.0182
3000.00,0.0181
2999.00,0.0179
2998.00,0.0178
2997.00,0.0177
2996.00,0.0176
2995.00,0.0176
2994.00,0.0176
2993.00,0.0175
2992.00,0.0175
2991.00,0.0174
2990.00,0.0173
2989.00,0.0173
2988.00,0.0172
2987.00,0.0171
2986.00,0.0169
2985.00,0.0166
2984.00,0.0163
2983.00,0.0161
2982.00,0.0160
2981.00,0.0160
2980.00,0.0161
2979.00,0.0163
2978.00,0.0165
2977.00,0.0166
2976.00,0.0168
2975.00,0.0168
2974.00,0.0168
2973.00,0.0167
2972.00,0.0166
2971.00,0.0167
2970.00,0.0168
2969.00,0.0169
2968.00,0.0171
2967.00,0.0172
2966.00,0.0173
2965.00,0.0174
2964.00,0.0175
2963.00,0.0177
2962.00,0.0178
2961.00,0.0179
2960.00,0.0179
2959.00,0.0178
2958.00,0.0178
2957.00,0.0179
2956.00,0.0180
2955.00,0.0181
2954.00,0.0182
2953.00,0.0183
2952.00,0.0184
2951.00,0.0184
2950.00,0.0185
2949.00,0.0185
2948.00,0.0185
2947.00,0.0185
2946.00,0.0185
2945.00,0.0186
2944.00,0.0186
2943.00,0.0188
2942.00,0.0189
2941.00,0.0190
2940.00,0.0190
2939.00,0.0191
2938.00,0.0191
2937.00,0.0192
2936.00,0.0194
2935.00,0.0195
2934.00,0.0196
2933.00,0.0196
2932.00,0.0197
2931.00,0.0197
2930.00,0.0198
2929.00,0.0199
2928.00,0.0201
2927.00,0.0202
2926.00,0.0202
2925.00,0.0203
2924.00,0.0203
2923.00,0.0203
2922.00,0.0202
2921.00,0.0201
2920.00,0.0199
2919.00,0.0197
2918.00,0.0195
2917.00,0.0194
2916.00,0.0193
2915.00,0.0192
2914.00,0.0192
2913.00,0.0191
2912.00,0.0191
2911.00,0.0191
2910.00,0.0191
2909.00,0.0190
2908.00,0.0189
2907.00,0.0189
2906.00,0.0188
2905.00,0.0187
2904.00,0.0187
2903.00,0.0186
2902.00,0.0185
2901.00,0.0185
2900.00,0.0185
2899.00,0.0184
2898.00,0.0184
2897.00,0.0184
2896.00,0.0184
2895.00,0.0183
2894.00,0.0182
2893.00,0.0182
2892.00,0.0181
2891.00,0.0181
2890.00,0.0180
2889.00,0.0180
2888.00,0.0180
2887.00,0.0180
2886.00,0.0180
2885.00,0.0180
2884.00,0.0179
2883.00,0.0179
2882.00,0.0179
2881.00,0.0179
2880.00,0.0179
2879.00,0.0179
2878.00,0.0179
2877.00,0.0180
2876.00,0.0180
2875.00,0.0180
2874.00,0.0180
2873.00,0.0180
2872.00,0.0180
2871.00,0.0180
2870.00,0.0180
2869.00,0.0181
2868.00,0.0181
2867.00,0.0181
2866.00,0.0181
2865.00,0.0182
2864.00,0.0182
2863.00,0.0183
2862.00,0.0183
2861.00,0.0184
2860.00,0.0185
2859.00,0.0187
2858.00,0.0189
2857.00,0.0190
2856.00,0.0191
2855.00,0.0191
2854.00,0.0191
2853.00,0.0190
2852.00,0.0190
2851.00,0.0190
2850.00,0.0189
2849.00,0.0188
2848.00,0.0187
2847.00,0.0186
2846.00,0.0185
2845.00,0.0185
2844.00,0.0184
2843.00,0.0183
2842.00,0.0183
2841.00,0.0182
2840.00,0.0181
2839.00,0.0180
2838.00,0.0179
2837.00,0.0179
2836.00,0.0179
2835.00,0.0179
2834.00,0.0179
2833.00,0.0179
2832.00,0.0178
2831.00,0.0177
2830.00,0.0177
2829.00,0.0177
2828.00,0.0177
2827.00,0.0178
2826.00,0.0177
2825.00,0.0177
2824.00,0.0177
2823.00,0.0177
2822.00,0.0176
2821.00,0.0176
2820.00,0.0175
2819.00,0.0175
2818.00,0.0174
2817.00,0.0174
2816.00,0.0174
2815.00,0.0174
2814.00,0.0174
2813.00,0.0174
2812.00,0.0173
2811.00,0.0173
2810.00,0.0173
2809.00,0.0173
2808.00,0.0173
2807.00,0.0173
2806.00,0.0173
2805.00,0.0173
2804.00,0.0173
2803.00,0.0173
2802.00,0.0173
2801.00,0.0173
2800.00,0.0173
2799.00,0.0173
2798.00,0.0173
2797.00,0.0172
2796.00,0.0172
2795.00,0.0172
2794.00,0.0172
2793.00,0.0171
2792.00,0.0171
2791.00,0.0171
2790.00,0.0172
2789.00,0.0172
2788.00,0.0171
2787.00,0.0171
2786.00,0.0171
2785.00,0.0170
2784.00,0.0170
2783.00,0.0170
2782.00,0.0169
2781.00,0.0168
2780.00,0.0168
2779.00,0.0167
2778.00,0.0168
2777.00,0.0168
2776.00,0.0169
2775.00,0.0169
2774.00,0.0169
2773.00,0.0169
2772.00,0.0169
2771.00,0.0168
2770.00,0.0167
2769.00,0.0166
2768.00,0.0165
2767.00,0.0165
2766.00,0.0165
2765.00,0.0166
2764.00,0.0166
2763.00,0.0167
2762.00,0.0167
2761.00,0.0167
2760.00,0.0167
2759.00,0.0166
2758.00,0.0166
2757.00,0.0166
2756.00,0.0166
2755.00,0.0166
