Created as New Dataset,Monday, April 03 2023
cm-1,A
4000.00,0.0534
3999.00,0.0533
3998.00,0.0533
3997.00,0.0532
3996.00,0.0532
3995.00,0.0531
3994.00,0.0530
3993.00,0.0530
3992.00,0.0530
3991.00,0.0530
3990.00,0.0530
3989.00,0.0530
3988.00,0.0530
3987.00,0.0530
3986.00,0.0530
3985.00,0.0531
3984.00,0.0531
3983.00,0.0531
3982.00,0.0531
3981.00,0.0530
3980.00,0.0530
3979.00,0.0530
3978.00,0.0530
3977.00,0.0529
3976.00,0.0529
3975.00,0.0528
3974.00,0.0528
3973.00,0.0528
3972.00,0.0529
3971.00,0.0529
3970.00,0.0530
3969.00,0.0531
3968.00,0.0531
3967.00,0.0530
3966.00,0.0529
3965.00,0.0528
3964.00,0.0528
3963.00,0.0529
3962.00,0.0529
3961.00,0.0528
3960.00,0.0528
3959.00,0.0527
3958.00,0.0527
3957.00,0.0528
3956.00,0.0527
3955.00,0.0526
3954.00,0.0525
3953.00,0.0523
3952.00,0.0522
3951.00,0.0522
3950.00,0.0523
3949.00,0.0524
3948.00,0.0523
3947.00,0.0522
3946.00,0.0521
3945.00,0.0522
3944.00,0.0523
3943.00,0.0524
3942.00,0.0522
3941.00,0.0522
3940.00,0.0523
3939.00,0.0525
3938.00,0.0526
3937.00,0.0525
3936.00,0.0522
3935.00,0.0520
3934.00,0.0520
3933.00,0.0520
3932.00,0.0520
3931.00,0.0520
3930.00,0.0519
3929.00,0.0519
3928.00,0.0519
3927.00,0.0519
3926.00,0.0520
3925.00,0.0520
3924.00,0.0518
3923.00,0.0516
3922.00,0.0515
3921.00,0.0515
3920.00,0.0516
3919.00,0.0517
3918.00,0.0520
3917.00,0.0522
3916.00,0.0523
3915.00,0.0524
3914.00,0.0526
3913.00,0.0528
3912.00,0.0529
3911.00,0.0528
3910.00,0.0524
3909.00,0.0518
3908.00,0.0512
3907.00,0.0506
3906.00,0.0502
3905.00,0.0499
3904.00,0.0497
3903.00,0.0495
3902.00,0.0498
3901.00,0.0505
3900.00,0.0512
3899.00,0.0515
3898.00,0.0515
3897.00,0.0515
3896.00,0.0515
3895.00,0.0514
3894.00,0.0514
3893.00,0.0516
3892.00,0.0518
3891.00,0.0514
3890.00,0.0506
3889.00,0.0503
3888.00,0.0507
3887.00,0.0513
3886.00,0.0514
3885.00,0.0508
3884.00,0.0501
3883.00,0.0502
3882.00,0.0509
3881.00,0.0515
3880.00,0.0514
3879.00,0.0509
3878.00,0.0507
3877.00,0.0511
3876.00,0.0515
3875.00,0.0513
3874.00,0.0504
3873.00,0.0496
3872.00,0.0497
3871.00,0.0505
3870.00,0.0508
3869.00,0.0502
3868.00,0.0497
3867.00,0.0501
3866.00,0.0508
3865.00,0.0512
3864.00,0.0512
3863.00,0.0513
3862.00,0.0514
3861.00,0.0515
3860.00,0.0513
3859.00,0.0507
3858.00,0.0498
3857.00,0.0486
3856.00,0.0478
3855.00,0.0483
3854.00,0.0496
3853.00,0.0500
3852.00,0.0495
3851.00,0.0500
3850.00,0.0514
3849.00,0.0522
3848.00,0.0523
3847.00,0.0520
3846.00,0.0516
3845.00,0.0512
3844.00,0.0507
3843.00,0.0500
3842.00,0.0493
3841.00,0.0490
3840.00,0.0492
3839.00,0.0497
3838.00,0.0500
3837.00,0.0500
3836.00,0.0500
3835.00,0.0504
3834.00,0.0511
3833.00,0.0517
3832.00,0.0519
3831.00,0.0518
3830.00,0.0516
3829.00,0.0517
3828.00,0.0519
3827.00,0.0517
3826.00,0.0510
3825.00,0.0501
3824.00,0.0497
3823.00,0.0501
3822.00,0.0507
3821.00,0.0505
3820.00,0.0494
3819.00,0.0492
3818.00,0.0503
3817.00,0.0517
3816.00,0.0524
3815.00,0.0521
3814.00,0.0520
3813.00,0.0524
3812.00,0.0527
3811.00,0.0522
3810.00,0.0517
3809.00,0.0516
3808.00,0.0518
3807.00,0.0517
3806.00,0.0508
3805.00,0.0500
3804.00,0.0503
3803.00,0.0512
3802.00,0.0518
3801.00,0.0514
3800.00,0.0506
3799.00,0.0507
3798.00,0.0517
3797.00,0.0524
3796.00,0.0526
3795.00,0.0524
3794.00,0.0526
3793.00,0.0530
3792.00,0.0533
3791.00,0.0533
3790.00,0.0532
3789.00,0.0530
3788.00,0.0528
3787.00,0.0528
3786.00,0.0529
3785.00,0.0528
3784.00,0.0525
3783.00,0.0522
3782.00,0.0521
3781.00,0.0524
3780.00,0.0527
3779.00,0.0527
3778.00,0.0526
3777.00,0.0527
3776.00,0.0530
3775.00,0.0530
3774.00,0.0526
3773.00,0.0522
3772.00,0.0522
3771.00,0.0522
3770.00,0.0521
3769.00,0.0517
3768.00,0.0516
3767.00,0.0520
3766.00,0.0525
3765.00,0.0525
3764.00,0.0521
3763.00,0.0519
3762.00,0.0519
3761.00,0.0520
3760.00,0.0519
3759.00,0.0517
3758.00,0.0513
3757.00,0.0507
3756.00,0.0501
3755.00,0.0496
3754.00,0.0491
3753.00,0.0488
3752.00,0.0491
3751.00,0.0497
3750.00,0.0497
3749.00,0.0491
3748.00,0.0488
3747.00,0.0493
3746.00,0.0506
3745.00,0.0517
3744.00,0.0513
3743.00,0.0502
3742.00,0.0502
3741.00,0.0509
3740.00,0.0508
3739.00,0.0501
3738.00,0.0494
3737.00,0.0492
3736.00,0.0493
3735.00,0.0493
3734.00,0.0496
3733.00,0.0503
3732.00,0.0509
3731.00,0.0512
3730.00,0.0514
3729.00,0.0518
3728.00,0.0521
3727.00,0.0521
3726.00,0.0517
3725.00,0.0514
3724.00,0.0514
3723.00,0.0517
3722.00,0.0519
3721.00,0.0521
3720.00,0.0524
3719.00,0.0527
3718.00,0.0527
3717.00,0.0523
3716.00,0.0517
3715.00,0.0512
3714.00,0.0509
3713.00,0.0510
3712.00,0.0514
3711.00,0.0516
3710.00,0.0517
3709.00,0.0520
3708.00,0.0524
3707.00,0.0529
3706.00,0.0530
3705.00,0.0531
3704.00,0.0531
3703.00,0.0532
3702.00,0.0532
3701.00,0.0532
3700.00,0.0532
3699.00,0.0534
3698.00,0.0538
3697.00,0.0539
3696.00,0.0535
3695.00,0.0529
3694.00,0.0523
3693.00,0.0516
3692.00,0.0512
3691.00,0.0513
3690.00,0.0520
3689.00,0.0526
3688.00,0.0528
3687.00,0.0529
3686.00,0.0535
3685.00,0.0541
3684.00,0.0543
3683.00,0.0539
3682.00,0.0533
3681.00,0.0526
3680.00,0.0516
3679.00,0.0504
3678.00,0.0496
3677.00,0.0500
3676.00,0.0507
3675.00,0.0503
3674.00,0.0493
3673.00,0.0494
3672.00,0.0507
3671.00,0.0520
3670.00,0.0527
3669.00,0.0526
3668.00,0.0526
3667.00,0.0531
3666.00,0.0538
3665.00,0.0542
3664.00,0.0543
3663.00,0.0542
3662.00,0.0540
3661.00,0.0536
3660.00,0.0532
3659.00,0.0530
3658.00,0.0532
3657.00,0.0534
3656.00,0.0530
3655.00,0.0522
3654.00,0.0514
3653.00,0.0507
3652.00,0.0501
3651.00,0.0497
3650.00,0.0499
3649.00,0.0504
3648.00,0.0508
3647.00,0.0512
3646.00,0.0519
3645.00,0.0528
3644.00,0.0535
3643.00,0.0540
3642.00,0.0541
3641.00,0.0540
3640.00,0.0539
3639.00,0.0538
3638.00,0.0537
3637.00,0.0535
3636.00,0.0534
3635.00,0.0532
3634.00,0.0527
3633.00,0.0518
3632.00,0.0510
3631.00,0.0509
3630.00,0.0518
3629.00,0.0527
3628.00,0.0526
3627.00,0.0525
3626.00,0.0531
3625.00,0.0537
3624.00,0.0537
3623.00,0.0531
3622.00,0.0526
3621.00,0.0525
3620.00,0.0526
3619.00,0.0525
3618.00,0.0522
3617.00,0.0520
3616.00,0.0521
3615.00,0.0524
3614.00,0.0526
3613.00,0.0524
3612.00,0.0522
3611.00,0.0522
3610.00,0.0527
3609.00,0.0534
3608.00,0.0537
3607.00,0.0538
3606.00,0.0537
3605.00,0.0538
3604.00,0.0538
3603.00,0.0539
3602.00,0.0539
3601.00,0.0539
3600.00,0.0538
3599.00,0.0535
3598.00,0.0533
3597.00,0.0533
3596.00,0.0533
3595.00,0.0534
3594.00,0.0534
3593.00,0.0533
3592.00,0.0530
3591.00,0.0528
3590.00,0.0527
3589.00,0.0528
3588.00,0.0531
3587.00,0.0532
3586.00,0.0532
3585.00,0.0535
3584.00,0.0540
3583.00,0.0544
3582.00,0.0547
3581.00,0.0547
3580.00,0.0547
3579.00,0.0547
3578.00,0.0546
3577.00,0.0546
3576.00,0.0547
3575.00,0.0547
3574.00,0.0547
3573.00,0.0545
3572.00,0.0541
3571.00,0.0534
3570.00,0.0528
3569.00,0.0525
3568.00,0.0527
3567.00,0.0529
3566.00,0.0530
3565.00,0.0530
3564.00,0.0534
3563.00,0.0539
3562.00,0.0543
3561.00,0.0546
3560.00,0.0548
3559.00,0.0549
3558.00,0.0550
3557.00,0.0550
3556.00,0.0550
3555.00,0.0549
3554.00,0.0549
3553.00,0.0549
3552.00,0.0549
3551.00,0.0547
3550.00,0.0546
3549.00,0.0545
3548.00,0.0545
3547.00,0.0545
3546.00,0.0546
3545.00,0.0547
3544.00,0.0548
3543.00,0.0550
3542.00,0.0552
3541.00,0.0553
3540.00,0.0553
3539.00,0.0552
3538.00,0.0552
3537.00,0.0552
3536.00,0.0552
3535.00,0.0552
3534.00,0.0553
3533.00,0.0553
3532.00,0.0553
3531.00,0.0552
3530.00,0.0550
3529.00,0.0548
3528.00,0.0546
3527.00,0.0544
3526.00,0.0544
3525.00,0.0547
3524.00,0.0550
3523.00,0.0552
3522.00,0.0553
3521.00,0.0554
3520.00,0.0554
3519.00,0.0555
3518.00,0.0555
3517.00,0.0555
3516.00,0.0554
3515.00,0.0554
3514.00,0.0554
3513.00,0.0554
3512.00,0.0554
3511.00,0.0554
3510.00,0.0553
3509.00,0.0553
3508.00,0.0552
3507.00,0.0551
3506.00,0.0551
3505.00,0.0551
3504.00,0.0552
3503.00,0.0553
3502.00,0.0553
3501.00,0.0554
3500.00,0.0555
3499.00,0.0556
3498.00,0.0557
3497.00,0.0558
3496.00,0.0558
3495.00,0.0558
3494.00,0.0557
3493.00,0.0557
3492.00,0.0557
3491.00,0.0557
3490.00,0.0557
3489.00,0.0557
3488.00,0.0557
3487.00,0.0556
3486.00,0.0555
3485.00,0.0555
3484.00,0.0555
3483.00,0.0555
3482.00,0.0556
3481.00,0.0556
3480.00,0.0557
3479.00,0.0557
3478.00,0.0558
3477.00,0.0559
3476.00,0.0559
3475.00,0.0560
3474.00,0.0560
3473.00,0.0560
3472.00,0.0560
3471.00,0.0559
3470.00,0.0559
3469.00,0.0560
3468.00,0.0560
3467.00,0.0561
3466.00,0.0561
3465.00,0.0562
3464.00,0.0562
3463.00,0.0561
3462.00,0.0559
3461.00,0.0558
3460.00,0.0559
3459.00,0.0560
3458.00,0.0561
3457.00,0.0561
3456.00,0.0561
3455.00,0.0560
3454.00,0.0560
3453.00,0.0560
3452.00,0.0560
3451.00,0.0559
3450.00,0.0558
3449.00,0.0557
3448.00,0.0557
3447.00,0.0557
3446.00,0.0557
3445.00,0.0558
3444.00,0.0559
3443.00,0.0560
3442.00,0.0560
3441.00,0.0559
3440.00,0.0559
3439.00,0.0559
3438.00,0.0559
3437.00,0.0560
3436.00,0.0560
3435.00,0.0560
3434.00,0.0560
3433.00,0.0560
3432.00,0.0560
3431.00,0.0561
3430.00,0.0561
3429.00,0.0561
3428.00,0.0561
3427.00,0.0561
3426.00,0.0561
3425.00,0.0561
3424.00,0.0562
3423.00,0.0562
3422.00,0.0562
3421.00,0.0562
3420.00,0.0561
3419.00,0.0561
3418.00,0.0562
3417.00,0.0562
3416.00,0.0561
3415.00,0.0561
3414.00,0.0561
3413.00,0.0561
3412.00,0.0561
3411.00,0.0562
3410.00,0.0562
3409.00,0.0563
3408.00,0.0563
3407.00,0.0563
3406.00,0.0563
3405.00,0.0563
3404.00,0.0562
3403.00,0.0562
3402.00,0.0561
3401.00,0.0561
3400.00,0.0561
3399.00,0.0561
3398.00,0.0561
3397.00,0.0561
3396.00,0.0560
3395.00,0.0559
3394.00,0.0559
3393.00,0.0560
3392.00,0.0561
3391.00,0.0562
3390.00,0.0562
3389.00,0.0563
3388.00,0.0563
3387.00,0.0563
3386.00,0.0562
3385.00,0.0562
3384.00,0.0562
3383.00,0.0562
3382.00,0.0562
3381.00,0.0563
3380.00,0.0563
3379.00,0.0564
3378.00,0.0565
3377.00,0.0565
3376.00,0.0565
3375.00,0.0565
3374.00,0.0564
3373.00,0.0564
3372.00,0.0563
3371.00,0.0562
3370.00,0.0562
3369.00,0.0562
3368.00,0.0562
3367.00,0.0562
3366.00,0.0562
3365.00,0.0561
3364.00,0.0561
3363.00,0.0561
3362.00,0.0563
3361.00,0.0564
3360.00,0.0565
3359.00,0.0565
3358.00,0.0565
3357.00,0.0564
3356.00,0.0564
3355.00,0.0564
3354.00,0.0565
3353.00,0.0565
3352.00,0.0565
3351.00,0.0565
3350.00,0.0565
3349.00,0.0565
3348.00,0.0565
3347.00,0.0565
3346.00,0.0565
3345.00,0.0564
3344.00,0.0564
3343.00,0.0563
3342.00,0.0564
3341.00,0.0564
3340.00,0.0565
3339.00,0.0565
3338.00,0.0565
3337.00,0.0565
3336.00,0.0565
3335.00,0.0564
3334.00,0.0564
3333.00,0.0565
3332.00,0.0565
3331.00,0.0565
3330.00,0.0564
3329.00,0.0564
3328.00,0.0564
3327.00,0.0564
3326.00,0.0565
3325.00,0.0566
3324.00,0.0567
3323.00,0.0567
3322.00,0.0567
3321.00,0.0566
3320.00,0.0566
3319.00,0.0565
3318.00,0.0565
3317.00,0.0565
3316.00,0.0565
3315.00,0.0564
3314.00,0.0564
3313.00,0.0564
3312.00,0.0564
3311.00,0.0564
3310.00,0.0565
3309.00,0.0566
3308.00,0.0566
3307.00,0.0567
3306.00,0.0567
3305.00,0.0567
3304.00,0.0566
3303.00,0.0566
3302.00,0.0566
3301.00,0.0566
3300.00,0.0566
3299.00,0.0566
3298.00,0.0566
3297.00,0.0566
3296.00,0.0567
3295.00,0.0567
3294.00,0.0567
3293.00,0.0567
3292.00,0.0567
3291.00,0.0566
3290.00,0.0566
3289.00,0.0567
3288.00,0.0567
3287.00,0.0568
3286.00,0.0568
3285.00,0.0569
3284.00,0.0569
3283.00,0.0569
3282.00,0.0568
3281.00,0.0568
3280.00,0.0568
3279.00,0.0568
3278.00,0.0568
3277.00,0.0567
3276.00,0.0567
3275.00,0.0567
3274.00,0.0567
3273.00,0.0568
3272.00,0.0568
3271.00,0.0569
3270.00,0.0569
3269.00,0.0570
3268.00,0.0570
3267.00,0.0570
3266.00,0.0570
3265.00,0.0569
3264.00,0.0568
3263.00,0.0568
3262.00,0.0568
3261.00,0.0568
3260.00,0.0569
3259.00,0.0570
3258.00,0.0569
3257.00,0.0569
3256.00,0.0569
3255.00,0.0569
3254.00,0.0569
3253.00,0.0570
3252.00,0.0570
3251.00,0.0571
3250.00,0.0570
3249.00,0.0570
3248.00,0.0570
3247.00,0.0569
3246.00,0.0569
3245.00,0.0570
3244.00,0.0570
3243.00,0.0570
3242.00,0.0570
3241.00,0.0570
3240.00,0.0570
3239.00,0.0570
3238.00,0.0570
3237.00,0.0571
3236.00,0.0572
3235.00,0.0573
3234.00,0.0573
3233.00,0.0573
3232.00,0.0572
3231.00,0.0572
3230.00,0.0571
3229.00,0.0571
3228.00,0.0571
3227.00,0.0571
3226.00,0.0571
3225.00,0.0571
3224.00,0.0571
3223.00,0.0571
3222.00,0.0572
3221.00,0.0572
3220.00,0.0572
3219.00,0.0571
3218.00,0.0571
3217.00,0.0571
3216.00,0.0572
3215.00,0.0573
3214.00,0.0574
3213.00,0.0574
3212.00,0.0573
3211.00,0.0573
3210.00,0.0572
3209.00,0.0573
3208.00,0.0573
3207.00,0.0573
3206.00,0.0574
3205.00,0.0574
3204.00,0.0575
3203.00,0.0575
3202.00,0.0575
3201.00,0.0575
3200.00,0.0575
3199.00,0.0574
3198.00,0.0574
3197.00,0.0574
3196.00,0.0574
3195.00,0.0574
3194.00,0.0574
3193.00,0.0574
3192.00,0.0574
3191.00,0.0574
3190.00,0.0574
3189.00,0.0573
3188.00,0.0573
3187.00,0.0573
3186.00,0.0574
3185.00,0.0574
3184.00,0.0575
3183.00,0.0576
3182.00,0.0577
3181.00,0.0576
3180.00,0.0576
3179.00,0.0575
3178.00,0.0574
3177.00,0.0574
3176.00,0.0574
3175.00,0.0574
3174.00,0.0575
3173.00,0.0575
3172.00,0.0576
3171.00,0.0576
3170.00,0.0576
3169.00,0.0576
3168.00,0.0576
3167.00,0.0576
3166.00,0.0577
3165.00,0.0578
3164.00,0.0579
3163.00,0.0579
3162.00,0.0579
3161.00,0.0578
3160.00,0.0577
3159.00,0.0576
3158.00,0.0576
3157.00,0.0575
3156.00,0.0576
3155.00,0.0576
3154.00,0.0577
3153.00,0.0578
3152.00,0.0578
3151.00,0.0578
3150.00,0.0578
3149.00,0.0578
3148.00,0.0578
3147.00,0.0578
3146.00,0.0578
3145.00,0.0578
3144.00,0.0579
3143.00,0.0579
3142.00,0.0579
3141.00,0.0579
3140.00,0.0578
3139.00,0.0578
3138.00,0.0579
3137.00,0.0579
3136.00,0.0579
3135.00,0.0579
3134.00,0.0579
3133.00,0.0579
3132.00,0.0579
3131.00,0.0580
3130.00,0.0580
3129.00,0.0581
3128.00,0.0580
3127.00,0.0580
3126.00,0.0580
3125.00,0.0580
3124.00,0.0579
3123.00,0.0579
3122.00,0.0579
3121.00,0.0579
3120.00,0.0579
3119.00,0.0579
3118.00,0.0579
3117.00,0.0580
3116.00,0.0580
3115.00,0.0580
3114.00,0.0580
3113.00,0.0581
3112.00,0.0581
3111.00,0.0581
3110.00,0.0581
3109.00,0.0581
3108.00,0.0581
3107.00,0.0582
3106.00,0.0582
3105.00,0.0582
3104.00,0.0582
3103.00,0.0582
3102.00,0.0581
3101.00,0.0581
3100.00,0.0580
3099.00,0.0580
3098.00,0.0580
3097.00,0.0581
3096.00,0.0582
3095.00,0.0583
3094.00,0.0584
3093.00,0.0585
3092.00,0.0585
3091.00,0.0585
3090.00,0.0584
3089.00,0.0583
3088.00,0.0582
3087.00,0.0582
3086.00,0.0582
3085.00,0.0583
3084.00,0.0584
3083.00,0.0584
3082.00,0.0584
3081.00,0.0584
3080.00,0.0585
3079.00,0.0585
3078.00,0.0585
3077.00,0.0585
3076.00,0.0585
3075.00,0.0585
3074.00,0.0586
3073.00,0.0586
3072.00,0.0586
3071.00,0.0587
3070.00,0.0587
3069.00,0.0587
3068.00,0.0587
3067.00,0.0586
3066.00,0.0586
3065.00,0.0585
3064.00,0.0585
3063.00,0.0585
3062.00,0.0585
3061.00,0.0586
3060.00,0.0586
3059.00,0.0586
3058.00,0.0586
3057.00,0.0587
3056.00,0.0587
3055.00,0.0587
3054.00,0.0587
3053.00,0.0587
3052.00,0.0588
3051.00,0.0588
3050.00,0.0589
3049.00,0.0589
3048.00,0.0589
3047.00,0.0589
3046.00,0.0589
3045.00,0.0589
3044.00,0.0589
3043.00,0.0588
3042.00,0.0588
3041.00,0.0587
3040.00,0.0587
3039.00,0.0587
3038.00,0.0588
3037.00,0.0589
3036.00,0.0590
3035.00,0.0590
3034.00,0.0590
3033.00,0.0589
3032.00,0.0589
3031.00,0.0589
3030.00,0.0588
3029.00,0.0588
3028.00,0.0588
3027.00,0.0588
3026.00,0.0588
3025.00,0.0589
3024.00,0.0589
3023.00,0.0589
3022.00,0.0589
3021.00,0.0589
3020.00,0.0589
3019.00,0.0588
3018.00,0.0588
3017.00,0.0588
3016.00,0.0588
3015.00,0.0587
3014.00,0.0586
3013.00,0.0585
3012.00,0.0585
3011.00,0.0584
3010.00,0.0584
3009.00,0.0583
3008.00,0.0582
3007.00,0.0580
3006.00,0.0580
3005.00,0.0579
3004.00,0.0578
3003.00,0.0576
3002.00,0.0574
3001.00,0.0573
3000.00,0.0572
2999.00,0.0570
2998.00,0.0569
2997.00,0.0567
2996.00,0.0566
2995.00,0.0565
2994.00,0.0565
2993.00,0.0564
2992.00,0.0564
2991.00,0.0563
2990.00,0.0563
2989.00,0.0563
2988.00,0.0562
2987.00,0.0560
2986.00,0.0557
2985.00,0.0553
2984.00,0.0549
2983.00,0.0545
2982.00,0.0543
2981.00,0.0544
2980.00,0.0545
2979.00,0.0548
2978.00,0.0550
2977.00,0.0553
2976.00,0.0554
2975.00,0.0555
2974.00,0.0554
2973.00,0.0553
2972.00,0.0552
2971.00,0.0553
2970.00,0.0555
2969.00,0.0557
2968.00,0.0559
2967.00,0.0560
2966.00,0.0561
2965.00,0.0562
2964.00,0.0563
2963.00,0.0565
2962.00,0.0566
2961.00,0.0567
2960.00,0.0568
2959.00,0.0568
2958.00,0.0568
2957.00,0.0568
2956.00,0.0570
2955.00,0.0571
2954.00,0.0572
2953.00,0.0574
2952.00,0.0575
2951.00,0.0575
2950.00,0.0576
2949.00,0.0577
2948.00,0.0577
2947.00,0.0577
2946.00,0.0578
2945.00,0.0579
2944.00,0.0580
2943.00,0.0580
2942.00,0.0581
2941.00,0.0581
2940.00,0.0581
2939.00,0.0580
2938.00,0.0580
2937.00,0.0580
2936.00,0.0580
2935.00,0.0580
2934.00,0.0581
2933.00,0.0580
2932.00,0.0580
2931.00,0.0580
2930.00,0.0581
2929.00,0.0581
2928.00,0.0581
2927.00,0.0581
2926.00,0.0581
2925.00,0.0581
2924.00,0.0581
2923.00,0.0582
2922.00,0.0583
2921.00,0.0584
2920.00,0.0584
2919.00,0.0584
2918.00,0.0584
2917.00,0.0584
2916.00,0.0584
2915.00,0.0584
2914.00,0.0584
2913.00,0.0584
2912.00,0.0584
2911.00,0.0584
2910.00,0.0584
2909.00,0.0583
2908.00,0.0583
2907.00,0.0583
2906.00,0.0583
2905.00,0.0583
2904.00,0.0583
2903.00,0.0583
2902.00,0.0584
2901.00,0.0584
2900.00,0.0584
2899.00,0.0584
2898.00,0.0583
2897.00,0.0583
2896.00,0.0583
2895.00,0.0583
2894.00,0.0582
2893.00,0.0582
2892.00,0.0583
2891.00,0.0583
2890.00,0.0583
2889.00,0.0583
2888.00,0.0583
2887.00,0.0583
2886.00,0.0583
2885.00,0.0583
2884.00,0.0583
2883.00,0.0583
2882.00,0.0583
2881.00,0.0583
2880.00,0.0584
2879.00,0.0585
2878.00,0.0586
2877.00,0.0586
2876.00,0.0587
2875.00,0.0587
2874.00,0.0586
2873.00,0.0586
2872.00,0.0586
2871.00,0.0586
2870.00,0.0586
2869.00,0.0587
2868.00,0.0587
2867.00,0.0587
2866.00,0.0587
2865.00,0.0587
2864.00,0.0587
2863.00,0.0588
2862.00,0.0588
2861.00,0.0589
2860.00,0.0590
2859.00,0.0591
2858.00,0.0592
2857.00,0.0593
2856.00,0.0593
2855.00,0.0593
2854.00,0.0593
2853.00,0.0593
2852.00,0.0593
2851.00,0.0594
2850.00,0.0595
2849.00,0.0596
2848.00,0.0596
2847.00,0.0596
2846.00,0.0597
2845.00,0.0597
2844.00,0.0597
2843.00,0.0597
2842.00,0.0597
2841.00,0.0596
2840.00,0.0596
2839.00,0.0595
2838.00,0.0595
2837.00,0.0596
2836.00,0.0596
2835.00,0.0598
2834.00,0.0598
2833.00,0.0598
2832.00,0.0598
2831.00,0.0597
2830.00,0.0597
2829.00,0.0596
2828.00,0.0597
2827.00,0.0597
2826.00,0.0597
2825.00,0.0597
2824.00,0.0597
2823.00,0.0597
2822.00,0.0597
2821.00,0.0596
2820.00,0.0596
2819.00,0.0595
2818.00,0.0595
2817.00,0.0596
2816.00,0.0596
2815.00,0.0596
2814.00,0.0596
2813.00,0.0596
2812.00,0.0596
2811.00,0.0596
2810.00,0.0596
2809.00,0.0597
2808.00,0.0597
2807.00,0.0597
2806.00,0.0597
2805.00,0.0597
2804.00,0.0597
2803.00,0.0597
2802.00,0.0597
2801.00,0.0597
2800.00,0.0598
2799.00,0.0598
2798.00,0.0598
2797.00,0.0598
2796.00,0.0597
2795.00,0.0597
2794.00,0.0597
2793.00,0.0597
2792.00,0.0598
2791.00,0.0598
2790.00,0.0598
2789.00,0.0598
2788.00,0.0598
2787.00,0.0598
2786.00,0.0597
2785.00,0.0597
2784.00,0.0597
2783.00,0.0597
2782.00,0.0596
2781.00,0.0596
2780.00,0.0596
2779.00,0.0596
2778.00,0.0596
2777.00,0.0597
2776.00,0.0597
2775.00,0.0597
2774.00,0.0597
2773.00,0.0597
2772.00,0.0597
2771.00,0.0597
2770.00,0.0596
2769.00,0.0595
2768.00,0.0595
2767.00,0.0595
2766.00,0.0595
2765.00,0.0595
2764.00,0.0596
2763.00,0.0596
2762.00,0.0596
2761.00,0.0597
2760.00,0.0597
2759.00,0.0597
2758.00,0.0596
2757.00,0.0596
2756.00,0.0596
2755.00,0.0595
