Created as New Dataset,Monday, April 03 2023
cm-1,A
4000.00,0.0148
3999.00,0.0148
3998.00,0.0148
3997.00,0.0148
3996.00,0.0147
3995.00,0.0147
3994.00,0.0147
3993.00,0.0147
3992.00,0.0147
3991.00,0.0148
3990.00,0.0148
3989.00,0.0148
3988.00,0.0148
3987.00,0.0148
3986.00,0.0148
3985.00,0.0148
3984.00,0.0147
3983.00,0.0147
3982.00,0.0147
3981.00,0.0148
3980.00,0.0148
3979.00,0.0148
3978.00,0.0149
3977.00,0.0148
3976.00,0.0148
3975.00,0.0148
3974.00,0.0148
3973.00,0.0148
3972.00,0.0148
3971.00,0.0148
3970.00,0.0148
3969.00,0.0148
3968.00,0.0148
3967.00,0.0148
3966.00,0.0149
3965.00,0.0149
3964.00,0.0149
3963.00,0.0149
3962.00,0.0149
3961.00,0.0149
3960.00,0.0149
3959.00,0.0148
3958.00,0.0148
3957.00,0.0148
3956.00,0.0148
3955.00,0.0148
3954.00,0.0148
3953.00,0.0148
3952.00,0.0149
3951.00,0.0149
3950.00,0.0150
3949.00,0.0150
3948.00,0.0151
3947.00,0.0151
3946.00,0.0150
3945.00,0.0150
3944.00,0.0149
3943.00,0.0149
3942.00,0.0148
3941.00,0.0148
3940.00,0.0148
3939.00,0.0149
3938.00,0.0149
3937.00,0.0149
3936.00,0.0150
3935.00,0.0151
3934.00,0.0152
3933.00,0.0152
3932.00,0.0151
3931.00,0.0151
3930.00,0.0151
3929.00,0.0150
3928.00,0.0150
3927.00,0.0150
3926.00,0.0149
3925.00,0.0149
3924.00,0.0149
3923.00,0.0149
3922.00,0.0150
3921.00,0.0150
3920.00,0.0151
3919.00,0.0151
3918.00,0.0152
3917.00,0.0151
3916.00,0.0151
3915.00,0.0150
3914.00,0.0150
3913.00,0.0149
3912.00,0.0149
3911.00,0.0149
3910.00,0.0149
3909.00,0.0149
3908.00,0.0150
3907.00,0.0151
3906.00,0.0152
3905.00,0.0153
3904.00,0.0155
3903.00,0.0155
3902.00,0.0155
3901.00,0.0155
3900.00,0.0154
3899.00,0.0153
3898.00,0.0153
3897.00,0.0153
3896.00,0.0153
3895.00,0.0153
3894.00,0.0152
3893.00,0.0152
3892.00,0.0152
3891.00,0.0152
3890.00,0.0152
3889.00,0.0153
3888.00,0.0153
3887.00,0.0154
3886.00,0.0154
3885.00,0.0154
3884.00,0.0153
3883.00,0.0153
3882.00,0.0152
3881.00,0.0151
3880.00,0.0151
3879.00,0.0151
3878.00,0.0152
3877.00,0.0152
3876.00,0.0152
3875.00,0.0151
3874.00,0.0151
3873.00,0.0152
3872.00,0.0153
3871.00,0.0154
3870.00,0.0154
3869.00,0.0154
3868.00,0.0154
3867.00,0.0155
3866.00,0.0156
3865.00,0.0155
3864.00,0.0154
3863.00,0.0153
3862.00,0.0154
3861.00,0.0155
3860.00,0.0155
3859.00,0.0154
3858.00,0.0154
3857.00,0.0153
3856.00,0.0154
3855.00,0.0155
3854.00,0.0156
3853.00,0.0154
3852.00,0.0153
3851.00,0.0153
3850.00,0.0154
3849.00,0.0155
3848.00,0.0155
3847.00,0.0154
3846.00,0.0154
3845.00,0.0154
3844.00,0.0154
3843.00,0.0155
3842.00,0.0155
3841.00,0.0155
3840.00,0.0156
3839.00,0.0155
3838.00,0.0155
3837.00,0.0154
3836.00,0.0154
3835.00,0.0153
3834.00,0.0153
3833.00,0.0154
3832.00,0.0154
3831.00,0.0155
3830.00,0.0155
3829.00,0.0155
3828.00,0.0155
3827.00,0.0154
3826.00,0.0154
3825.00,0.0155
3824.00,0.0156
3823.00,0.0157
3822.00,0.0157
3821.00,0.0156
3820.00,0.0156
3819.00,0.0156
3818.00,0.0156
3817.00,0.0156
3816.00,0.0155
3815.00,0.0153
3814.00,0.0153
3813.00,0.0154
3812.00,0.0154
3811.00,0.0154
3810.00,0.0153
3809.00,0.0154
3808.00,0.0155
3807.00,0.0155
3806.00,0.0155
3805.00,0.0155
3804.00,0.0156
3803.00,0.0156
3802.00,0.0155
3801.00,0.0155
3800.00,0.0154
3799.00,0.0155
3798.00,0.0155
3797.00,0.0154
3796.00,0.0154
3795.00,0.0153
3794.00,0.0154
3793.00,0.0153
3792.00,0.0153
3791.00,0.0153
3790.00,0.0153
3789.00,0.0153
3788.00,0.0154
3787.00,0.0154
3786.00,0.0154
3785.00,0.0154
3784.00,0.0154
3783.00,0.0154
3782.00,0.0155
3781.00,0.0155
3780.00,0.0154
3779.00,0.0153
3778.00,0.0153
3777.00,0.0154
3776.00,0.0154
3775.00,0.0154
3774.00,0.0154
3773.00,0.0155
3772.00,0.0156
3771.00,0.0157
3770.00,0.0157
3769.00,0.0157
3768.00,0.0156
3767.00,0.0156
3766.00,0.0156
3765.00,0.0156
3764.00,0.0156
3763.00,0.0157
3762.00,0.0157
3761.00,0.0158
3760.00,0.0157
3759.00,0.0157
3758.00,0.0157
3757.00,0.0158
3756.00,0.0158
3755.00,0.0159
3754.00,0.0160
3753.00,0.0162
3752.00,0.0163
3751.00,0.0164
3750.00,0.0165
3749.00,0.0164
3748.00,0.0163
3747.00,0.0161
3746.00,0.0161
3745.00,0.0161
3744.00,0.0161
3743.00,0.0160
3742.00,0.0160
3741.00,0.0161
3740.00,0.0162
3739.00,0.0162
3738.00,0.0162
3737.00,0.0162
3736.00,0.0162
3735.00,0.0161
3734.00,0.0161
3733.00,0.0161
3732.00,0.0161
3731.00,0.0160
3730.00,0.0160
3729.00,0.0160
3728.00,0.0160
3727.00,0.0160
3726.00,0.0160
3725.00,0.0159
3724.00,0.0159
3723.00,0.0158
3722.00,0.0158
3721.00,0.0157
3720.00,0.0157
3719.00,0.0158
3718.00,0.0158
3717.00,0.0159
3716.00,0.0159
3715.00,0.0159
3714.00,0.0159
3713.00,0.0158
3712.00,0.0158
3711.00,0.0157
3710.00,0.0157
3709.00,0.0157
3708.00,0.0157
3707.00,0.0157
3706.00,0.0156
3705.00,0.0155
3704.00,0.0155
3703.00,0.0154
3702.00,0.0154
3701.00,0.0155
3700.00,0.0156
3699.00,0.0157
3698.00,0.0157
3697.00,0.0157
3696.00,0.0157
3695.00,0.0157
3694.00,0.0157
3693.00,0.0157
3692.00,0.0156
3691.00,0.0157
3690.00,0.0157
3689.00,0.0158
3688.00,0.0159
3687.00,0.0159
3686.00,0.0158
3685.00,0.0158
3684.00,0.0158
3683.00,0.0158
3682.00,0.0157
3681.00,0.0157
3680.00,0.0157
3679.00,0.0156
3678.00,0.0157
3677.00,0.0158
3676.00,0.0159
3675.00,0.0160
3674.00,0.0161
3673.00,0.0162
3672.00,0.0162
3671.00,0.0161
3670.00,0.0159
3669.00,0.0157
3668.00,0.0157
3667.00,0.0158
3666.00,0.0158
3665.00,0.0157
3664.00,0.0157
3663.00,0.0157
3662.00,0.0157
3661.00,0.0157
3660.00,0.0157
3659.00,0.0157
3658.00,0.0159
3657.00,0.0160
3656.00,0.0160
3655.00,0.0160
3654.00,0.0159
3653.00,0.0159
3652.00,0.0159
3651.00,0.0160
3650.00,0.0161
3649.00,0.0161
3648.00,0.0160
3647.00,0.0160
3646.00,0.0160
3645.00,0.0160
3644.00,0.0160
3643.00,0.0160
3642.00,0.0159
3641.00,0.0159
3640.00,0.0158
3639.00,0.0158
3638.00,0.0158
3637.00,0.0157
3636.00,0.0158
3635.00,0.0158
3634.00,0.0159
3633.00,0.0160
3632.00,0.0161
3631.00,0.0162
3630.00,0.0164
3629.00,0.0164
3628.00,0.0164
3627.00,0.0163
3626.00,0.0163
3625.00,0.0163
3624.00,0.0162
3623.00,0.0162
3622.00,0.0162
3621.00,0.0162
3620.00,0.0163
3619.00,0.0164
3618.00,0.0164
3617.00,0.0164
3616.00,0.0165
3615.00,0.0165
3614.00,0.0164
3613.00,0.0165
3612.00,0.0165
3611.00,0.0166
3610.00,0.0166
3609.00,0.0165
3608.00,0.0163
3607.00,0.0162
3606.00,0.0162
3605.00,0.0162
3604.00,0.0161
3603.00,0.0161
3602.00,0.0161
3601.00,0.0160
3600.00,0.0160
3599.00,0.0160
3598.00,0.0160
3597.00,0.0160
3596.00,0.0160
3595.00,0.0161
3594.00,0.0161
3593.00,0.0162
3592.00,0.0163
3591.00,0.0163
3590.00,0.0164
3589.00,0.0163
3588.00,0.0162
3587.00,0.0161
3586.00,0.0161
3585.00,0.0161
3584.00,0.0162
3583.00,0.0161
3582.00,0.0161
3581.00,0.0161
3580.00,0.0160
3579.00,0.0160
3578.00,0.0160
3577.00,0.0160
3576.00,0.0160
3575.00,0.0160
3574.00,0.0160
3573.00,0.0161
3572.00,0.0161
3571.00,0.0161
3570.00,0.0162
3569.00,0.0162
3568.00,0.0163
3567.00,0.0163
3566.00,0.0163
3565.00,0.0162
3564.00,0.0162
3563.00,0.0161
3562.00,0.0161
3561.00,0.0160
3560.00,0.0160
3559.00,0.0160
3558.00,0.0160
3557.00,0.0160
3556.00,0.0161
3555.00,0.0161
3554.00,0.0161
3553.00,0.0161
3552.00,0.0161
3551.00,0.0161
3550.00,0.0162
3549.00,0.0162
3548.00,0.0163
3547.00,0.0164
3546.00,0.0164
3545.00,0.0164
3544.00,0.0163
3543.00,0.0162
3542.00,0.0162
3541.00,0.0161
3540.00,0.0161
3539.00,0.0160
3538.00,0.0161
3537.00,0.0161
3536.00,0.0161
3535.00,0.0161
3534.00,0.0161
3533.00,0.0162
3532.00,0.0162
3531.00,0.0162
3530.00,0.0162
3529.00,0.0162
3528.00,0.0162
3527.00,0.0163
3526.00,0.0163
3525.00,0.0163
3524.00,0.0163
3523.00,0.0163
3522.00,0.0162
3521.00,0.0162
3520.00,0.0162
3519.00,0.0161
3518.00,0.0161
3517.00,0.0161
3516.00,0.0161
3515.00,0.0161
3514.00,0.0161
3513.00,0.0161
3512.00,0.0160
3511.00,0.0161
3510.00,0.0161
3509.00,0.0161
3508.00,0.0162
3507.00,0.0162
3506.00,0.0161
3505.00,0.0161
3504.00,0.0162
3503.00,0.0162
3502.00,0.0162
3501.00,0.0162
3500.00,0.0162
3499.00,0.0162
3498.00,0.0162
3497.00,0.0162
3496.00,0.0163
3495.00,0.0163
3494.00,0.0163
3493.00,0.0163
3492.00,0.0163
3491.00,0.0163
3490.00,0.0163
3489.00,0.0162
3488.00,0.0162
3487.00,0.0162
3486.00,0.0162
3485.00,0.0162
3484.00,0.0162
3483.00,0.0162
3482.00,0.0162
3481.00,0.0162
3480.00,0.0163
3479.00,0.0163
3478.00,0.0163
3477.00,0.0162
3476.00,0.0162
3475.00,0.0162
3474.00,0.0162
3473.00,0.0162
3472.00,0.0162
3471.00,0.0162
3470.00,0.0162
3469.00,0.0162
3468.00,0.0162
3467.00,0.0163
3466.00,0.0163
3465.00,0.0162
3464.00,0.0162
3463.00,0.0162
3462.00,0.0162
3461.00,0.0162
3460.00,0.0162
3459.00,0.0162
3458.00,0.0162
3457.00,0.0162
3456.00,0.0162
3455.00,0.0162
3454.00,0.0162
3453.00,0.0162
3452.00,0.0162
3451.00,0.0163
3450.00,0.0163
3449.00,0.0163
3448.00,0.0163
3447.00,0.0163
3446.00,0.0163
3445.00,0.0163
3444.00,0.0163
3443.00,0.0163
3442.00,0.0163
3441.00,0.0163
3440.00,0.0163
3439.00,0.0163
3438.00,0.0163
3437.00,0.0163
3436.00,0.0164
3435.00,0.0164
3434.00,0.0164
3433.00,0.0163
3432.00,0.0163
3431.00,0.0163
3430.00,0.0163
3429.00,0.0163
3428.00,0.0163
3427.00,0.0163
3426.00,0.0164
3425.00,0.0163
3424.00,0.0163
3423.00,0.0164
3422.00,0.0164
3421.00,0.0164
3420.00,0.0164
3419.00,0.0164
3418.00,0.0164
3417.00,0.0163
3416.00,0.0163
3415.00,0.0163
3414.00,0.0163
3413.00,0.0163
3412.00,0.0163
3411.00,0.0163
3410.00,0.0163
3409.00,0.0163
3408.00,0.0163
3407.00,0.0163
3406.00,0.0163
3405.00,0.0163
3404.00,0.0163
3403.00,0.0163
3402.00,0.0164
3401.00,0.0164
3400.00,0.0164
3399.00,0.0164
3398.00,0.0164
3397.00,0.0164
3396.00,0.0164
3395.00,0.0164
3394.00,0.0164
3393.00,0.0164
3392.00,0.0164
3391.00,0.0164
3390.00,0.0164
3389.00,0.0164
3388.00,0.0164
3387.00,0.0164
3386.00,0.0164
3385.00,0.0164
3384.00,0.0164
3383.00,0.0163
3382.00,0.0163
3381.00,0.0163
3380.00,0.0163
3379.00,0.0163
3378.00,0.0164
3377.00,0.0164
3376.00,0.0165
3375.00,0.0165
3374.00,0.0165
3373.00,0.0164
3372.00,0.0164
3371.00,0.0164
3370.00,0.0164
3369.00,0.0164
3368.00,0.0164
3367.00,0.0164
3366.00,0.0164
3365.00,0.0165
3364.00,0.0165
3363.00,0.0165
3362.00,0.0165
3361.00,0.0165
3360.00,0.0165
3359.00,0.0165
3358.00,0.0164
3357.00,0.0164
3356.00,0.0164
3355.00,0.0164
3354.00,0.0165
3353.00,0.0165
3352.00,0.0165
3351.00,0.0166
3350.00,0.0166
3349.00,0.0166
3348.00,0.0165
3347.00,0.0165
3346.00,0.0164
3345.00,0.0164
3344.00,0.0164
3343.00,0.0164
3342.00,0.0165
3341.00,0.0165
3340.00,0.0165
3339.00,0.0165
3338.00,0.0165
3337.00,0.0165
3336.00,0.0165
3335.00,0.0165
3334.00,0.0165
3333.00,0.0165
3332.00,0.0164
3331.00,0.0165
3330.00,0.0165
3329.00,0.0165
3328.00,0.0165
3327.00,0.0165
3326.00,0.0166
3325.00,0.0166
3324.00,0.0166
3323.00,0.0166
3322.00,0.0166
3321.00,0.0165
3320.00,0.0165
3319.00,0.0165
3318.00,0.0166
3317.00,0.0166
3316.00,0.0165
3315.00,0.0165
3314.00,0.0165
3313.00,0.0166
3312.00,0.0166
3311.00,0.0166
3310.00,0.0166
3309.00,0.0166
3308.00,0.0165
3307.00,0.0165
3306.00,0.0165
3305.00,0.0165
3304.00,0.0165
3303.00,0.0165
3302.00,0.0166
3301.00,0.0166
3300.00,0.0167
3299.00,0.0167
3298.00,0.0167
3297.00,0.0167
3296.00,0.0167
3295.00,0.0166
3294.00,0.0166
3293.00,0.0167
3292.00,0.0167
3291.00,0.0167
3290.00,0.0166
3289.00,0.0166
3288.00,0.0166
3287.00,0.0166
3286.00,0.0166
3285.00,0.0166
3284.00,0.0166
3283.00,0.0166
3282.00,0.0166
3281.00,0.0166
3280.00,0.0166
3279.00,0.0167
3278.00,0.0167
3277.00,0.0167
3276.00,0.0168
3275.00,0.0168
3274.00,0.0168
3273.00,0.0168
3272.00,0.0168
3271.00,0.0167
3270.00,0.0167
3269.00,0.0167
3268.00,0.0167
3267.00,0.0166
3266.00,0.0166
3265.00,0.0166
3264.00,0.0166
3263.00,0.0166
3262.00,0.0165
3261.00,0.0166
3260.00,0.0166
3259.00,0.0166
3258.00,0.0166
3257.00,0.0166
3256.00,0.0166
3255.00,0.0166
3254.00,0.0166
3253.00,0.0166
3252.00,0.0167
3251.00,0.0167
3250.00,0.0167
3249.00,0.0167
3248.00,0.0168
3247.00,0.0168
3246.00,0.0168
3245.00,0.0168
3244.00,0.0167
3243.00,0.0167
3242.00,0.0167
3241.00,0.0167
3240.00,0.0167
3239.00,0.0167
3238.00,0.0168
3237.00,0.0168
3236.00,0.0168
3235.00,0.0168
3234.00,0.0168
3233.00,0.0168
3232.00,0.0168
3231.00,0.0168
3230.00,0.0168
3229.00,0.0168
3228.00,0.0168
3227.00,0.0168
3226.00,0.0168
3225.00,0.0167
3224.00,0.0167
3223.00,0.0167
3222.00,0.0167
3221.00,0.0167
3220.00,0.0168
3219.00,0.0168
3218.00,0.0168
3217.00,0.0167
3216.00,0.0167
3215.00,0.0167
3214.00,0.0167
3213.00,0.0167
3212.00,0.0167
3211.00,0.0167
3210.00,0.0168
3209.00,0.0168
3208.00,0.0168
3207.00,0.0168
3206.00,0.0168
3205.00,0.0167
3204.00,0.0167
3203.00,0.0168
3202.00,0.0168
3201.00,0.0168
3200.00,0.0168
3199.00,0.0168
3198.00,0.0168
3197.00,0.0168
3196.00,0.0168
3195.00,0.0168
3194.00,0.0168
3193.00,0.0168
3192.00,0.0168
3191.00,0.0168
3190.00,0.0167
3189.00,0.0167
3188.00,0.0167
3187.00,0.0168
3186.00,0.0168
3185.00,0.0168
3184.00,0.0168
3183.00,0.0168
3182.00,0.0167
3181.00,0.0167
3180.00,0.0167
3179.00,0.0167
3178.00,0.0167
3177.00,0.0167
3176.00,0.0167
3175.00,0.0167
3174.00,0.0167
3173.00,0.0168
3172.00,0.0168
3171.00,0.0168
3170.00,0.0168
3169.00,0.0168
3168.00,0.0168
3167.00,0.0168
3166.00,0.0168
3165.00,0.0168
3164.00,0.0167
3163.00,0.0167
3162.00,0.0167
3161.00,0.0167
3160.00,0.0167
3159.00,0.0167
3158.00,0.0167
3157.00,0.0167
3156.00,0.0167
3155.00,0.0166
3154.00,0.0166
3153.00,0.0166
3152.00,0.0166
3151.00,0.0167
3150.00,0.0167
3149.00,0.0167
3148.00,0.0167
3147.00,0.0167
3146.00,0.0167
3145.00,0.0167
3144.00,0.0167
3143.00,0.0167
3142.00,0.0167
3141.00,0.0167
3140.00,0.0167
3139.00,0.0167
3138.00,0.0168
3137.00,0.0168
3136.00,0.0168
3135.00,0.0168
3134.00,0.0167
3133.00,0.0167
3132.00,0.0167
3131.00,0.0167
3130.00,0.0167
3129.00,0.0167
3128.00,0.0167
3127.00,0.0167
3126.00,0.0167
3125.00,0.0167
3124.00,0.0167
3123.00,0.0166
3122.00,0.0167
3121.00,0.0167
3120.00,0.0167
3119.00,0.0167
3118.00,0.0168
3117.00,0.0168
3116.00,0.0167
3115.00,0.0167
3114.00,0.0166
3113.00,0.0166
3112.00,0.0166
3111.00,0.0166
3110.00,0.0166
3109.00,0.0166
3108.00,0.0166
3107.00,0.0166
3106.00,0.0166
3105.00,0.0166
3104.00,0.0166
3103.00,0.0166
3102.00,0.0166
3101.00,0.0166
3100.00,0.0166
3099.00,0.0166
3098.00,0.0166
3097.00,0.0166
3096.00,0.0166
3095.00,0.0166
3094.00,0.0166
3093.00,0.0167
3092.00,0.0167
3091.00,0.0167
3090.00,0.0167
3089.00,0.0167
3088.00,0.0166
3087.00,0.0166
3086.00,0.0166
3085.00,0.0166
3084.00,0.0167
3083.00,0.0166
3082.00,0.0166
3081.00,0.0166
3080.00,0.0166
3079.00,0.0166
3078.00,0.0166
3077.00,0.0166
3076.00,0.0166
3075.00,0.0166
3074.00,0.0166
3073.00,0.0166
3072.00,0.0165
3071.00,0.0165
3070.00,0.0165
3069.00,0.0165
3068.00,0.0166
3067.00,0.0166
3066.00,0.0166
3065.00,0.0166
3064.00,0.0166
3063.00,0.0166
3062.00,0.0166
3061.00,0.0166
3060.00,0.0166
3059.00,0.0166
3058.00,0.0166
3057.00,0.0166
3056.00,0.0166
3055.00,0.0166
3054.00,0.0166
3053.00,0.0166
3052.00,0.0166
3051.00,0.0166
3050.00,0.0166
3049.00,0.0165
3048.00,0.0165
3047.00,0.0165
3046.00,0.0165
3045.00,0.0165
3044.00,0.0165
3043.00,0.0165
3042.00,0.0165
3041.00,0.0165
3040.00,0.0164
3039.00,0.0164
3038.00,0.0164
3037.00,0.0165
3036.00,0.0165
3035.00,0.0165
3034.00,0.0165
3033.00,0.0165
3032.00,0.0164
3031.00,0.0164
3030.00,0.0163
3029.00,0.0163
3028.00,0.0163
3027.00,0.0163
3026.00,0.0163
3025.00,0.0163
3024.00,0.0163
3023.00,0.0163
3022.00,0.0163
3021.00,0.0163
3020.00,0.0162
3019.00,0.0162
3018.00,0.0163
3017.00,0.0163
3016.00,0.0163
3015.00,0.0163
3014.00,0.0163
3013.00,0.0163
3012.00,0.0163
3011.00,0.0162
3010.00,0.0161
3009.00,0.0160
3008.00,0.0160
3007.00,0.0159
3006.00,0.0159
3005.00,0.0159
3004.00,0.0159
3003.00,0.0159
3002.00,0.0158
3001.00,0.0158
3000.00,0.0158
2999.00,0.0157
2998.00,0.0157
2997.00,0.0156
2996.00,0.0156
2995.00,0.0156
2994.00,0.0156
2993.00,0.0156
2992.00,0.0156
2991.00,0.0155
2990.00,0.0155
2989.00,0.0154
2988.00,0.0153
2987.00,0.0153
2986.00,0.0153
2985.00,0.0152
2984.00,0.0151
2983.00,0.0150
2982.00,0.0149
2981.00,0.0149
2980.00,0.0149
2979.00,0.0149
2978.00,0.0149
2977.00,0.0150
2976.00,0.0150
2975.00,0.0151
2974.00,0.0150
2973.00,0.0150
2972.00,0.0150
2971.00,0.0149
2970.00,0.0149
2969.00,0.0148
2968.00,0.0148
2967.00,0.0147
2966.00,0.0147
2965.00,0.0147
2964.00,0.0147
2963.00,0.0147
2962.00,0.0146
2961.00,0.0146
2960.00,0.0146
2959.00,0.0145
2958.00,0.0145
2957.00,0.0145
2956.00,0.0146
2955.00,0.0146
2954.00,0.0146
2953.00,0.0146
2952.00,0.0146
2951.00,0.0146
2950.00,0.0147
2949.00,0.0147
2948.00,0.0147
2947.00,0.0147
2946.00,0.0147
2945.00,0.0147
2944.00,0.0147
2943.00,0.0146
2942.00,0.0145
2941.00,0.0144
2940.00,0.0143
2939.00,0.0142
2938.00,0.0141
2937.00,0.0141
2936.00,0.0139
2935.00,0.0138
2934.00,0.0137
2933.00,0.0136
2932.00,0.0135
2931.00,0.0134
2930.00,0.0133
2929.00,0.0131
2928.00,0.0130
2927.00,0.0129
2926.00,0.0128
2925.00,0.0128
2924.00,0.0128
2923.00,0.0128
2922.00,0.0128
2921.00,0.0129
2920.00,0.0129
2919.00,0.0129
2918.00,0.0129
2917.00,0.0130
2916.00,0.0131
2915.00,0.0132
2914.00,0.0134
2913.00,0.0136
2912.00,0.0138
2911.00,0.0139
2910.00,0.0140
2909.00,0.0141
2908.00,0.0141
2907.00,0.0142
2906.00,0.0143
2905.00,0.0144
2904.00,0.0144
2903.00,0.0145
2902.00,0.0145
2901.00,0.0145
2900.00,0.0146
2899.00,0.0146
2898.00,0.0146
2897.00,0.0147
2896.00,0.0147
2895.00,0.0147
2894.00,0.0148
2893.00,0.0147
2892.00,0.0147
2891.00,0.0147
2890.00,0.0148
2889.00,0.0148
2888.00,0.0148
2887.00,0.0149
2886.00,0.0149
2885.00,0.0149
2884.00,0.0149
2883.00,0.0149
2882.00,0.0149
2881.00,0.0149
2880.00,0.0149
2879.00,0.0149
2878.00,0.0150
2877.00,0.0150
2876.00,0.0150
2875.00,0.0149
2874.00,0.0149
2873.00,0.0148
2872.00,0.0148
2871.00,0.0148
2870.00,0.0147
2869.00,0.0147
2868.00,0.0148
2867.00,0.0148
2866.00,0.0148
2865.00,0.0147
2864.00,0.0146
2863.00,0.0146
2862.00,0.0145
2861.00,0.0145
2860.00,0.0144
2859.00,0.0143
2858.00,0.0142
2857.00,0.0141
2856.00,0.0141
2855.00,0.0140
2854.00,0.0140
2853.00,0.0140
2852.00,0.0140
2851.00,0.0140
2850.00,0.0141
2849.00,0.0142
2848.00,0.0144
2847.00,0.0145
2846.00,0.0146
2845.00,0.0148
2844.00,0.0149
2843.00,0.0150
2842.00,0.0151
2841.00,0.0151
2840.00,0.0152
2839.00,0.0153
2838.00,0.0153
2837.00,0.0153
2836.00,0.0153
2835.00,0.0154
2834.00,0.0154
2833.00,0.0154
2832.00,0.0154
2831.00,0.0154
2830.00,0.0154
2829.00,0.0154
2828.00,0.0154
2827.00,0.0153
2826.00,0.0154
2825.00,0.0154
2824.00,0.0154
2823.00,0.0154
2822.00,0.0154
2821.00,0.0155
2820.00,0.0155
2819.00,0.0155
2818.00,0.0155
2817.00,0.0155
2816.00,0.0155
2815.00,0.0155
2814.00,0.0155
2813.00,0.0156
2812.00,0.0156
2811.00,0.0156
2810.00,0.0156
2809.00,0.0156
2808.00,0.0155
2807.00,0.0155
2806.00,0.0155
2805.00,0.0155
2804.00,0.0155
2803.00,0.0155
2802.00,0.0155
2801.00,0.0155
2800.00,0.0155
2799.00,0.0155
2798.00,0.0155
2797.00,0.0155
2796.00,0.0155
2795.00,0.0155
2794.00,0.0155
2793.00,0.0155
2792.00,0.0155
2791.00,0.0155
2790.00,0.0155
2789.00,0.0155
2788.00,0.0155
2787.00,0.0155
2786.00,0.0155
2785.00,0.0155
2784.00,0.0155
2783.00,0.0155
2782.00,0.0155
2781.00,0.0155
2780.00,0.0155
2779.00,0.0154
2778.00,0.0154
2777.00,0.0154
2776.00,0.0154
2775.00,0.0154
2774.00,0.0155
2773.00,0.0155
2772.00,0.0155
2771.00,0.0155
2770.00,0.0155
2769.00,0.0155
2768.00,0.0155
2767.00,0.0155
2766.00,0.0154
2765.00,0.0154
2764.00,0.0154
2763.00,0.0154
2762.00,0.0154
2761.00,0.0154
2760.00,0.0154
2759.00,0.0154
2758.00,0.0154
2757.00,0.0154
2756.00,0.0154
2755.00,0.0154
