Created as New Dataset,Monday, April 03 2023
cm-1,A
4000.00,0.0224
3999.00,0.0224
3998.00,0.0223
3997.00,0.0223
3996.00,0.0223
3995.00,0.0223
3994.00,0.0223
3993.00,0.0223
3992.00,0.0223
3991.00,0.0223
3990.00,0.0223
3989.00,0.0223
3988.00,0.0223
3987.00,0.0223
3986.00,0.0223
3985.00,0.0223
3984.00,0.0223
3983.00,0.0223
3982.00,0.0222
3981.00,0.0222
3980.00,0.0222
3979.00,0.0223
3978.00,0.0223
3977.00,0.0222
3976.00,0.0222
3975.00,0.0222
3974.00,0.0222
3973.00,0.0222
3972.00,0.0222
3971.00,0.0221
3970.00,0.0221
3969.00,0.0221
3968.00,0.0221
3967.00,0.0221
3966.00,0.0222
3965.00,0.0222
3964.00,0.0222
3963.00,0.0222
3962.00,0.0222
3961.00,0.0222
3960.00,0.0221
3959.00,0.0221
3958.00,0.0221
3957.00,0.0221
3956.00,0.0221
3955.00,0.0221
3954.00,0.0220
3953.00,0.0220
3952.00,0.0221
3951.00,0.0221
3950.00,0.0221
3949.00,0.0221
3948.00,0.0222
3947.00,0.0222
3946.00,0.0222
3945.00,0.0221
3944.00,0.0220
3943.00,0.0219
3942.00,0.0219
3941.00,0.0219
3940.00,0.0219
3939.00,0.0219
3938.00,0.0220
3937.00,0.0220
3936.00,0.0221
3935.00,0.0222
3934.00,0.0222
3933.00,0.0222
3932.00,0.0221
3931.00,0.0220
3930.00,0.0220
3929.00,0.0220
3928.00,0.0219
3927.00,0.0218
3926.00,0.0218
3925.00,0.0217
3924.00,0.0217
3923.00,0.0218
3922.00,0.0218
3921.00,0.0219
3920.00,0.0219
3919.00,0.0219
3918.00,0.0219
3917.00,0.0219
3916.00,0.0219
3915.00,0.0218
3914.00,0.0218
3913.00,0.0217
3912.00,0.0217
3911.00,0.0217
3910.00,0.0217
3909.00,0.0218
3908.00,0.0218
3907.00,0.0219
3906.00,0.0220
3905.00,0.0221
3904.00,0.0222
3903.00,0.0223
3902.00,0.0222
3901.00,0.0221
3900.00,0.0219
3899.00,0.0219
3898.00,0.0219
3897.00,0.0219
3896.00,0.0220
3895.00,0.0220
3894.00,0.0220
3893.00,0.0219
3892.00,0.0219
3891.00,0.0219
3890.00,0.0219
3889.00,0.0220
3888.00,0.0220
3887.00,0.0220
3886.00,0.0220
3885.00,0.0219
3884.00,0.0219
3883.00,0.0218
3882.00,0.0216
3881.00,0.0215
3880.00,0.0215
3879.00,0.0216
3878.00,0.0217
3877.00,0.0217
3876.00,0.0216
3875.00,0.0216
3874.00,0.0216
3873.00,0.0217
3872.00,0.0218
3871.00,0.0218
3870.00,0.0218
3869.00,0.0219
3868.00,0.0220
3867.00,0.0221
3866.00,0.0221
3865.00,0.0219
3864.00,0.0217
3863.00,0.0216
3862.00,0.0217
3861.00,0.0217
3860.00,0.0218
3859.00,0.0217
3858.00,0.0217
3857.00,0.0217
3856.00,0.0218
3855.00,0.0220
3854.00,0.0221
3853.00,0.0220
3852.00,0.0218
3851.00,0.0218
3850.00,0.0217
3849.00,0.0216
3848.00,0.0216
3847.00,0.0216
3846.00,0.0215
3845.00,0.0215
3844.00,0.0215
3843.00,0.0216
3842.00,0.0217
3841.00,0.0218
3840.00,0.0218
3839.00,0.0217
3838.00,0.0217
3837.00,0.0216
3836.00,0.0216
3835.00,0.0215
3834.00,0.0215
3833.00,0.0215
3832.00,0.0215
3831.00,0.0216
3830.00,0.0216
3829.00,0.0216
3828.00,0.0216
3827.00,0.0215
3826.00,0.0215
3825.00,0.0215
3824.00,0.0216
3823.00,0.0217
3822.00,0.0217
3821.00,0.0216
3820.00,0.0215
3819.00,0.0216
3818.00,0.0216
3817.00,0.0215
3816.00,0.0213
3815.00,0.0212
3814.00,0.0212
3813.00,0.0213
3812.00,0.0213
3811.00,0.0212
3810.00,0.0212
3809.00,0.0212
3808.00,0.0213
3807.00,0.0214
3806.00,0.0214
3805.00,0.0215
3804.00,0.0215
3803.00,0.0215
3802.00,0.0215
3801.00,0.0214
3800.00,0.0214
3799.00,0.0213
3798.00,0.0212
3797.00,0.0211
3796.00,0.0210
3795.00,0.0210
3794.00,0.0209
3793.00,0.0209
3792.00,0.0208
3791.00,0.0208
3790.00,0.0208
3789.00,0.0209
3788.00,0.0209
3787.00,0.0209
3786.00,0.0209
3785.00,0.0209
3784.00,0.0209
3783.00,0.0209
3782.00,0.0209
3781.00,0.0208
3780.00,0.0207
3779.00,0.0206
3778.00,0.0206
3777.00,0.0207
3776.00,0.0207
3775.00,0.0208
3774.00,0.0209
3773.00,0.0209
3772.00,0.0210
3771.00,0.0210
3770.00,0.0210
3769.00,0.0209
3768.00,0.0209
3767.00,0.0208
3766.00,0.0208
3765.00,0.0208
3764.00,0.0208
3763.00,0.0209
3762.00,0.0210
3761.00,0.0210
3760.00,0.0210
3759.00,0.0209
3758.00,0.0210
3757.00,0.0211
3756.00,0.0212
3755.00,0.0213
3754.00,0.0215
3753.00,0.0217
3752.00,0.0219
3751.00,0.0220
3750.00,0.0221
3749.00,0.0220
3748.00,0.0219
3747.00,0.0216
3746.00,0.0214
3745.00,0.0213
3744.00,0.0212
3743.00,0.0212
3742.00,0.0212
3741.00,0.0213
3740.00,0.0213
3739.00,0.0214
3738.00,0.0215
3737.00,0.0215
3736.00,0.0215
3735.00,0.0213
3734.00,0.0213
3733.00,0.0212
3732.00,0.0212
3731.00,0.0211
3730.00,0.0211
3729.00,0.0210
3728.00,0.0211
3727.00,0.0211
3726.00,0.0210
3725.00,0.0210
3724.00,0.0209
3723.00,0.0209
3722.00,0.0208
3721.00,0.0208
3720.00,0.0208
3719.00,0.0208
3718.00,0.0209
3717.00,0.0210
3716.00,0.0210
3715.00,0.0212
3714.00,0.0213
3713.00,0.0215
3712.00,0.0216
3711.00,0.0216
3710.00,0.0217
3709.00,0.0218
3708.00,0.0220
3707.00,0.0221
3706.00,0.0221
3705.00,0.0222
3704.00,0.0222
3703.00,0.0223
3702.00,0.0224
3701.00,0.0225
3700.00,0.0228
3699.00,0.0230
3698.00,0.0232
3697.00,0.0233
3696.00,0.0234
3695.00,0.0235
3694.00,0.0235
3693.00,0.0236
3692.00,0.0236
3691.00,0.0235
3690.00,0.0234
3689.00,0.0233
3688.00,0.0232
3687.00,0.0231
3686.00,0.0231
3685.00,0.0230
3684.00,0.0229
3683.00,0.0229
3682.00,0.0228
3681.00,0.0227
3680.00,0.0226
3679.00,0.0226
3678.00,0.0226
3677.00,0.0226
3676.00,0.0227
3675.00,0.0227
3674.00,0.0229
3673.00,0.0231
3672.00,0.0232
3671.00,0.0231
3670.00,0.0229
3669.00,0.0228
3668.00,0.0228
3667.00,0.0228
3666.00,0.0228
3665.00,0.0228
3664.00,0.0229
3663.00,0.0230
3662.00,0.0231
3661.00,0.0232
3660.00,0.0233
3659.00,0.0235
3658.00,0.0238
3657.00,0.0241
3656.00,0.0244
3655.00,0.0245
3654.00,0.0246
3653.00,0.0246
3652.00,0.0247
3651.00,0.0249
3650.00,0.0251
3649.00,0.0252
3648.00,0.0251
3647.00,0.0251
3646.00,0.0251
3645.00,0.0251
3644.00,0.0250
3643.00,0.0249
3642.00,0.0249
3641.00,0.0249
3640.00,0.0249
3639.00,0.0249
3638.00,0.0249
3637.00,0.0249
3636.00,0.0250
3635.00,0.0252
3634.00,0.0253
3633.00,0.0255
3632.00,0.0256
3631.00,0.0258
3630.00,0.0261
3629.00,0.0264
3628.00,0.0266
3627.00,0.0268
3626.00,0.0269
3625.00,0.0271
3624.00,0.0273
3623.00,0.0274
3622.00,0.0276
3621.00,0.0278
3620.00,0.0279
3619.00,0.0279
3618.00,0.0278
3617.00,0.0277
3616.00,0.0275
3615.00,0.0274
3614.00,0.0273
3613.00,0.0273
3612.00,0.0274
3611.00,0.0275
3610.00,0.0275
3609.00,0.0274
3608.00,0.0274
3607.00,0.0273
3606.00,0.0273
3605.00,0.0274
3604.00,0.0274
3603.00,0.0274
3602.00,0.0274
3601.00,0.0274
3600.00,0.0274
3599.00,0.0274
3598.00,0.0274
3597.00,0.0275
3596.00,0.0275
3595.00,0.0276
3594.00,0.0277
3593.00,0.0278
3592.00,0.0279
3591.00,0.0279
3590.00,0.0278
3589.00,0.0278
3588.00,0.0277
3587.00,0.0278
3586.00,0.0280
3585.00,0.0281
3584.00,0.0282
3583.00,0.0282
3582.00,0.0282
3581.00,0.0282
3580.00,0.0283
3579.00,0.0284
3578.00,0.0284
3577.00,0.0285
3576.00,0.0285
3575.00,0.0285
3574.00,0.0286
3573.00,0.0286
3572.00,0.0286
3571.00,0.0287
3570.00,0.0287
3569.00,0.0289
3568.00,0.0290
3567.00,0.0292
3566.00,0.0293
3565.00,0.0294
3564.00,0.0294
3563.00,0.0294
3562.00,0.0294
3561.00,0.0293
3560.00,0.0294
3559.00,0.0294
3558.00,0.0295
3557.00,0.0295
3556.00,0.0296
3555.00,0.0297
3554.00,0.0298
3553.00,0.0299
3552.00,0.0300
3551.00,0.0301
3550.00,0.0301
3549.00,0.0302
3548.00,0.0302
3547.00,0.0303
3546.00,0.0304
3545.00,0.0304
3544.00,0.0305
3543.00,0.0305
3542.00,0.0305
3541.00,0.0305
3540.00,0.0305
3539.00,0.0305
3538.00,0.0306
3537.00,0.0306
3536.00,0.0307
3535.00,0.0308
3534.00,0.0309
3533.00,0.0309
3532.00,0.0309
3531.00,0.0309
3530.00,0.0310
3529.00,0.0311
3528.00,0.0312
3527.00,0.0314
3526.00,0.0315
3525.00,0.0315
3524.00,0.0316
3523.00,0.0316
3522.00,0.0316
3521.00,0.0316
3520.00,0.0316
3519.00,0.0316
3518.00,0.0317
3517.00,0.0318
3516.00,0.0318
3515.00,0.0319
3514.00,0.0319
3513.00,0.0320
3512.00,0.0320
3511.00,0.0320
3510.00,0.0320
3509.00,0.0321
3508.00,0.0321
3507.00,0.0322
3506.00,0.0322
3505.00,0.0322
3504.00,0.0323
3503.00,0.0325
3502.00,0.0326
3501.00,0.0327
3500.00,0.0327
3499.00,0.0328
3498.00,0.0328
3497.00,0.0328
3496.00,0.0329
3495.00,0.0329
3494.00,0.0330
3493.00,0.0329
3492.00,0.0329
3491.00,0.0330
3490.00,0.0330
3489.00,0.0331
3488.00,0.0332
3487.00,0.0333
3486.00,0.0334
3485.00,0.0335
3484.00,0.0335
3483.00,0.0335
3482.00,0.0335
3481.00,0.0335
3480.00,0.0335
3479.00,0.0336
3478.00,0.0336
3477.00,0.0336
3476.00,0.0336
3475.00,0.0337
3474.00,0.0338
3473.00,0.0339
3472.00,0.0339
3471.00,0.0339
3470.00,0.0339
3469.00,0.0339
3468.00,0.0339
3467.00,0.0340
3466.00,0.0341
3465.00,0.0341
3464.00,0.0343
3463.00,0.0343
3462.00,0.0344
3461.00,0.0345
3460.00,0.0345
3459.00,0.0345
3458.00,0.0344
3457.00,0.0344
3456.00,0.0344
3455.00,0.0345
3454.00,0.0345
3453.00,0.0346
3452.00,0.0347
3451.00,0.0348
3450.00,0.0349
3449.00,0.0349
3448.00,0.0350
3447.00,0.0350
3446.00,0.0350
3445.00,0.0350
3444.00,0.0351
3443.00,0.0351
3442.00,0.0351
3441.00,0.0351
3440.00,0.0351
3439.00,0.0352
3438.00,0.0353
3437.00,0.0354
3436.00,0.0354
3435.00,0.0355
3434.00,0.0355
3433.00,0.0355
3432.00,0.0356
3431.00,0.0356
3430.00,0.0356
3429.00,0.0355
3428.00,0.0355
3427.00,0.0355
3426.00,0.0356
3425.00,0.0357
3424.00,0.0357
3423.00,0.0358
3422.00,0.0358
3421.00,0.0359
3420.00,0.0360
3419.00,0.0360
3418.00,0.0360
3417.00,0.0360
3416.00,0.0360
3415.00,0.0360
3414.00,0.0360
3413.00,0.0360
3412.00,0.0361
3411.00,0.0361
3410.00,0.0361
3409.00,0.0361
3408.00,0.0361
3407.00,0.0362
3406.00,0.0362
3405.00,0.0363
3404.00,0.0363
3403.00,0.0364
3402.00,0.0364
3401.00,0.0364
3400.00,0.0364
3399.00,0.0364
3398.00,0.0365
3397.00,0.0365
3396.00,0.0365
3395.00,0.0366
3394.00,0.0367
3393.00,0.0368
3392.00,0.0368
3391.00,0.0368
3390.00,0.0368
3389.00,0.0367
3388.00,0.0367
3387.00,0.0368
3386.00,0.0368
3385.00,0.0369
3384.00,0.0369
3383.00,0.0369
3382.00,0.0369
3381.00,0.0370
3380.00,0.0370
3379.00,0.0370
3378.00,0.0371
3377.00,0.0371
3376.00,0.0371
3375.00,0.0371
3374.00,0.0371
3373.00,0.0371
3372.00,0.0371
3371.00,0.0371
3370.00,0.0371
3369.00,0.0371
3368.00,0.0372
3367.00,0.0372
3366.00,0.0372
3365.00,0.0372
3364.00,0.0373
3363.00,0.0373
3362.00,0.0373
3361.00,0.0373
3360.00,0.0373
3359.00,0.0373
3358.00,0.0373
3357.00,0.0374
3356.00,0.0374
3355.00,0.0373
3354.00,0.0373
3353.00,0.0373
3352.00,0.0374
3351.00,0.0375
3350.00,0.0375
3349.00,0.0375
3348.00,0.0375
3347.00,0.0374
3346.00,0.0374
3345.00,0.0374
3344.00,0.0374
3343.00,0.0375
3342.00,0.0376
3341.00,0.0376
3340.00,0.0377
3339.00,0.0377
3338.00,0.0376
3337.00,0.0376
3336.00,0.0376
3335.00,0.0376
3334.00,0.0376
3333.00,0.0376
3332.00,0.0376
3331.00,0.0377
3330.00,0.0377
3329.00,0.0377
3328.00,0.0377
3327.00,0.0377
3326.00,0.0377
3325.00,0.0377
3324.00,0.0377
3323.00,0.0377
3322.00,0.0376
3321.00,0.0376
3320.00,0.0377
3319.00,0.0378
3318.00,0.0378
3317.00,0.0379
3316.00,0.0379
3315.00,0.0379
3314.00,0.0379
3313.00,0.0379
3312.00,0.0379
3311.00,0.0379
3310.00,0.0379
3309.00,0.0379
3308.00,0.0380
3307.00,0.0380
3306.00,0.0380
3305.00,0.0380
3304.00,0.0379
3303.00,0.0379
3302.00,0.0379
3301.00,0.0380
3300.00,0.0380
3299.00,0.0380
3298.00,0.0380
3297.00,0.0380
3296.00,0.0380
3295.00,0.0380
3294.00,0.0380
3293.00,0.0381
3292.00,0.0381
3291.00,0.0381
3290.00,0.0381
3289.00,0.0381
3288.00,0.0381
3287.00,0.0381
3286.00,0.0381
3285.00,0.0381
3284.00,0.0381
3283.00,0.0381
3282.00,0.0381
3281.00,0.0381
3280.00,0.0382
3279.00,0.0382
3278.00,0.0382
3277.00,0.0383
3276.00,0.0383
3275.00,0.0383
3274.00,0.0383
3273.00,0.0384
3272.00,0.0384
3271.00,0.0383
3270.00,0.0383
3269.00,0.0382
3268.00,0.0382
3267.00,0.0382
3266.00,0.0382
3265.00,0.0383
3264.00,0.0383
3263.00,0.0383
3262.00,0.0383
3261.00,0.0383
3260.00,0.0383
3259.00,0.0382
3258.00,0.0382
3257.00,0.0382
3256.00,0.0382
3255.00,0.0382
3254.00,0.0382
3253.00,0.0383
3252.00,0.0383
3251.00,0.0383
3250.00,0.0384
3249.00,0.0384
3248.00,0.0384
3247.00,0.0384
3246.00,0.0384
3245.00,0.0384
3244.00,0.0384
3243.00,0.0384
3242.00,0.0384
3241.00,0.0383
3240.00,0.0383
3239.00,0.0383
3238.00,0.0384
3237.00,0.0384
3236.00,0.0385
3235.00,0.0385
3234.00,0.0384
3233.00,0.0384
3232.00,0.0383
3231.00,0.0383
3230.00,0.0383
3229.00,0.0384
3228.00,0.0384
3227.00,0.0384
3226.00,0.0384
3225.00,0.0384
3224.00,0.0384
3223.00,0.0384
3222.00,0.0383
3221.00,0.0383
3220.00,0.0383
3219.00,0.0383
3218.00,0.0383
3217.00,0.0383
3216.00,0.0383
3215.00,0.0383
3214.00,0.0383
3213.00,0.0384
3212.00,0.0384
3211.00,0.0384
3210.00,0.0384
3209.00,0.0383
3208.00,0.0383
3207.00,0.0383
3206.00,0.0383
3205.00,0.0383
3204.00,0.0383
3203.00,0.0383
3202.00,0.0383
3201.00,0.0383
3200.00,0.0383
3199.00,0.0383
3198.00,0.0383
3197.00,0.0383
3196.00,0.0383
3195.00,0.0383
3194.00,0.0383
3193.00,0.0383
3192.00,0.0383
3191.00,0.0383
3190.00,0.0382
3189.00,0.0382
3188.00,0.0382
3187.00,0.0383
3186.00,0.0383
3185.00,0.0383
3184.00,0.0382
3183.00,0.0382
3182.00,0.0381
3181.00,0.0381
3180.00,0.0381
3179.00,0.0381
3178.00,0.0381
3177.00,0.0380
3176.00,0.0380
3175.00,0.0380
3174.00,0.0380
3173.00,0.0380
3172.00,0.0381
3171.00,0.0381
3170.00,0.0381
3169.00,0.0380
3168.00,0.0380
3167.00,0.0379
3166.00,0.0379
3165.00,0.0379
3164.00,0.0379
3163.00,0.0379
3162.00,0.0379
3161.00,0.0379
3160.00,0.0379
3159.00,0.0379
3158.00,0.0379
3157.00,0.0379
3156.00,0.0379
3155.00,0.0378
3154.00,0.0378
3153.00,0.0378
3152.00,0.0378
3151.00,0.0378
3150.00,0.0378
3149.00,0.0378
3148.00,0.0378
3147.00,0.0378
3146.00,0.0378
3145.00,0.0378
3144.00,0.0377
3143.00,0.0377
3142.00,0.0377
3141.00,0.0377
3140.00,0.0376
3139.00,0.0376
3138.00,0.0376
3137.00,0.0376
3136.00,0.0376
3135.00,0.0376
3134.00,0.0376
3133.00,0.0376
3132.00,0.0376
3131.00,0.0375
3130.00,0.0375
3129.00,0.0375
3128.00,0.0375
3127.00,0.0375
3126.00,0.0375
3125.00,0.0375
3124.00,0.0374
3123.00,0.0374
3122.00,0.0374
3121.00,0.0375
3120.00,0.0375
3119.00,0.0376
3118.00,0.0376
3117.00,0.0375
3116.00,0.0375
3115.00,0.0375
3114.00,0.0375
3113.00,0.0374
3112.00,0.0374
3111.00,0.0374
3110.00,0.0373
3109.00,0.0373
3108.00,0.0373
3107.00,0.0373
3106.00,0.0373
3105.00,0.0373
3104.00,0.0373
3103.00,0.0373
3102.00,0.0373
3101.00,0.0373
3100.00,0.0373
3099.00,0.0373
3098.00,0.0372
3097.00,0.0372
3096.00,0.0372
3095.00,0.0373
3094.00,0.0373
3093.00,0.0373
3092.00,0.0373
3091.00,0.0373
3090.00,0.0373
3089.00,0.0373
3088.00,0.0373
3087.00,0.0373
3086.00,0.0373
3085.00,0.0372
3084.00,0.0372
3083.00,0.0372
3082.00,0.0372
3081.00,0.0372
3080.00,0.0373
3079.00,0.0373
3078.00,0.0372
3077.00,0.0372
3076.00,0.0371
3075.00,0.0371
3074.00,0.0371
3073.00,0.0370
3072.00,0.0370
3071.00,0.0370
3070.00,0.0370
3069.00,0.0369
3068.00,0.0369
3067.00,0.0370
3066.00,0.0370
3065.00,0.0370
3064.00,0.0370
3063.00,0.0370
3062.00,0.0369
3061.00,0.0369
3060.00,0.0369
3059.00,0.0369
3058.00,0.0369
3057.00,0.0369
3056.00,0.0369
3055.00,0.0369
3054.00,0.0369
3053.00,0.0369
3052.00,0.0368
3051.00,0.0367
3050.00,0.0367
3049.00,0.0367
3048.00,0.0367
3047.00,0.0367
3046.00,0.0367
3045.00,0.0368
3044.00,0.0367
3043.00,0.0367
3042.00,0.0367
3041.00,0.0366
3040.00,0.0366
3039.00,0.0366
3038.00,0.0365
3037.00,0.0365
3036.00,0.0365
3035.00,0.0365
3034.00,0.0365
3033.00,0.0364
3032.00,0.0364
3031.00,0.0363
3030.00,0.0364
3029.00,0.0364
3028.00,0.0363
3027.00,0.0363
3026.00,0.0363
3025.00,0.0363
3024.00,0.0362
3023.00,0.0362
3022.00,0.0362
3021.00,0.0361
3020.00,0.0361
3019.00,0.0360
3018.00,0.0361
3017.00,0.0361
3016.00,0.0361
3015.00,0.0362
3014.00,0.0362
3013.00,0.0362
3012.00,0.0362
3011.00,0.0361
3010.00,0.0360
3009.00,0.0360
3008.00,0.0360
3007.00,0.0360
3006.00,0.0360
3005.00,0.0360
3004.00,0.0360
3003.00,0.0360
3002.00,0.0360
3001.00,0.0359
3000.00,0.0359
2999.00,0.0358
2998.00,0.0358
2997.00,0.0357
2996.00,0.0357
2995.00,0.0357
2994.00,0.0358
2993.00,0.0358
2992.00,0.0358
2991.00,0.0358
2990.00,0.0357
2989.00,0.0357
2988.00,0.0357
2987.00,0.0357
2986.00,0.0357
2985.00,0.0357
2984.00,0.0356
2983.00,0.0355
2982.00,0.0355
2981.00,0.0355
2980.00,0.0355
2979.00,0.0355
2978.00,0.0355
2977.00,0.0355
2976.00,0.0356
2975.00,0.0356
2974.00,0.0356
2973.00,0.0356
2972.00,0.0355
2971.00,0.0355
2970.00,0.0355
2969.00,0.0355
2968.00,0.0354
2967.00,0.0354
2966.00,0.0354
2965.00,0.0354
2964.00,0.0354
2963.00,0.0353
2962.00,0.0353
2961.00,0.0353
2960.00,0.0353
2959.00,0.0352
2958.00,0.0352
2957.00,0.0352
2956.00,0.0352
2955.00,0.0352
2954.00,0.0352
2953.00,0.0352
2952.00,0.0352
2951.00,0.0353
2950.00,0.0353
2949.00,0.0353
2948.00,0.0353
2947.00,0.0354
2946.00,0.0354
2945.00,0.0354
2944.00,0.0354
2943.00,0.0354
2942.00,0.0354
2941.00,0.0353
2940.00,0.0353
2939.00,0.0353
2938.00,0.0353
2937.00,0.0353
2936.00,0.0353
2935.00,0.0353
2934.00,0.0353
2933.00,0.0352
2932.00,0.0352
2931.00,0.0351
2930.00,0.0350
2929.00,0.0350
2928.00,0.0349
2927.00,0.0349
2926.00,0.0349
2925.00,0.0349
2924.00,0.0348
2923.00,0.0348
2922.00,0.0348
2921.00,0.0347
2920.00,0.0346
2919.00,0.0344
2918.00,0.0343
2917.00,0.0342
2916.00,0.0342
2915.00,0.0342
2914.00,0.0344
2913.00,0.0345
2912.00,0.0346
2911.00,0.0346
2910.00,0.0347
2909.00,0.0347
2908.00,0.0348
2907.00,0.0348
2906.00,0.0348
2905.00,0.0348
2904.00,0.0348
2903.00,0.0349
2902.00,0.0349
2901.00,0.0348
2900.00,0.0348
2899.00,0.0348
2898.00,0.0347
2897.00,0.0347
2896.00,0.0347
2895.00,0.0347
2894.00,0.0347
2893.00,0.0346
2892.00,0.0346
2891.00,0.0346
2890.00,0.0346
2889.00,0.0346
2888.00,0.0346
2887.00,0.0346
2886.00,0.0346
2885.00,0.0345
2884.00,0.0345
2883.00,0.0344
2882.00,0.0344
2881.00,0.0344
2880.00,0.0344
2879.00,0.0343
2878.00,0.0343
2877.00,0.0343
2876.00,0.0343
2875.00,0.0343
2874.00,0.0343
2873.00,0.0342
2872.00,0.0342
2871.00,0.0341
2870.00,0.0341
2869.00,0.0340
2868.00,0.0340
2867.00,0.0340
2866.00,0.0340
2865.00,0.0340
2864.00,0.0339
2863.00,0.0339
2862.00,0.0339
2861.00,0.0339
2860.00,0.0339
2859.00,0.0339
2858.00,0.0339
2857.00,0.0339
2856.00,0.0339
2855.00,0.0338
2854.00,0.0338
2853.00,0.0337
2852.00,0.0336
2851.00,0.0336
2850.00,0.0335
2849.00,0.0335
2848.00,0.0335
2847.00,0.0335
2846.00,0.0335
2845.00,0.0336
2844.00,0.0336
2843.00,0.0336
2842.00,0.0336
2841.00,0.0336
2840.00,0.0336
2839.00,0.0335
2838.00,0.0335
2837.00,0.0334
2836.00,0.0334
2835.00,0.0333
2834.00,0.0333
2833.00,0.0333
2832.00,0.0333
2831.00,0.0332
2830.00,0.0332
2829.00,0.0332
2828.00,0.0332
2827.00,0.0331
2826.00,0.0331
2825.00,0.0331
2824.00,0.0331
2823.00,0.0331
2822.00,0.0331
2821.00,0.0331
2820.00,0.0330
2819.00,0.0330
2818.00,0.0330
2817.00,0.0329
2816.00,0.0329
2815.00,0.0329
2814.00,0.0328
2813.00,0.0328
2812.00,0.0328
2811.00,0.0328
2810.00,0.0327
2809.00,0.0327
2808.00,0.0327
2807.00,0.0326
2806.00,0.0326
2805.00,0.0325
2804.00,0.0325
2803.00,0.0325
2802.00,0.0325
2801.00,0.0324
2800.00,0.0324
2799.00,0.0324
2798.00,0.0323
2797.00,0.0323
2796.00,0.0323
2795.00,0.0323
2794.00,0.0323
2793.00,0.0323
2792.00,0.0323
2791.00,0.0323
2790.00,0.0322
2789.00,0.0322
2788.00,0.0322
2787.00,0.0322
2786.00,0.0322
2785.00,0.0321
2784.00,0.0321
2783.00,0.0321
2782.00,0.0320
2781.00,0.0320
2780.00,0.0320
2779.00,0.0319
2778.00,0.0319
2777.00,0.0319
2776.00,0.0319
2775.00,0.0319
2774.00,0.0318
2773.00,0.0318
2772.00,0.0318
2771.00,0.0318
2770.00,0.0318
2769.00,0.0317
2768.00,0.0317
2767.00,0.0317
2766.00,0.0317
2765.00,0.0316
2764.00,0.0316
2763.00,0.0316
2762.00,0.0316
2761.00,0.0316
2760.00,0.0315
2759.00,0.0315
2758.00,0.0315
2757.00,0.0314
2756.00,0.0314
2755.00,0.0314
