Created as New Dataset,Monday, April 03 2023
cm-1,A
4000.00,0.0241
3999.00,0.0241
3998.00,0.0241
3997.00,0.0241
3996.00,0.0240
3995.00,0.0240
3994.00,0.0240
3993.00,0.0240
3992.00,0.0240
3991.00,0.0239
3990.00,0.0239
3989.00,0.0239
3988.00,0.0238
3987.00,0.0238
3986.00,0.0238
3985.00,0.0238
3984.00,0.0238
3983.00,0.0238
3982.00,0.0238
3981.00,0.0238
3980.00,0.0238
3979.00,0.0238
3978.00,0.0238
3977.00,0.0238
3976.00,0.0237
3975.00,0.0237
3974.00,0.0237
3973.00,0.0237
3972.00,0.0238
3971.00,0.0238
3970.00,0.0238
3969.00,0.0238
3968.00,0.0237
3967.00,0.0237
3966.00,0.0236
3965.00,0.0236
3964.00,0.0236
3963.00,0.0237
3962.00,0.0238
3961.00,0.0238
3960.00,0.0237
3959.00,0.0236
3958.00,0.0236
3957.00,0.0235
3956.00,0.0235
3955.00,0.0235
3954.00,0.0234
3953.00,0.0235
3952.00,0.0235
3951.00,0.0236
3950.00,0.0236
3949.00,0.0237
3948.00,0.0238
3947.00,0.0238
3946.00,0.0238
3945.00,0.0238
3944.00,0.0236
3943.00,0.0234
3942.00,0.0233
3941.00,0.0234
3940.00,0.0234
3939.00,0.0234
3938.00,0.0234
3937.00,0.0235
3936.00,0.0235
3935.00,0.0235
3934.00,0.0234
3933.00,0.0234
3932.00,0.0234
3931.00,0.0234
3930.00,0.0235
3929.00,0.0236
3928.00,0.0236
3927.00,0.0236
3926.00,0.0235
3925.00,0.0234
3924.00,0.0234
3923.00,0.0235
3922.00,0.0235
3921.00,0.0235
3920.00,0.0235
3919.00,0.0234
3918.00,0.0234
3917.00,0.0234
3916.00,0.0234
3915.00,0.0233
3914.00,0.0233
3913.00,0.0232
3912.00,0.0231
3911.00,0.0231
3910.00,0.0231
3909.00,0.0232
3908.00,0.0233
3907.00,0.0234
3906.00,0.0234
3905.00,0.0233
3904.00,0.0234
3903.00,0.0236
3902.00,0.0237
3901.00,0.0238
3900.00,0.0237
3899.00,0.0235
3898.00,0.0233
3897.00,0.0232
3896.00,0.0231
3895.00,0.0231
3894.00,0.0231
3893.00,0.0230
3892.00,0.0230
3891.00,0.0229
3890.00,0.0229
3889.00,0.0230
3888.00,0.0231
3887.00,0.0229
3886.00,0.0228
3885.00,0.0227
3884.00,0.0229
3883.00,0.0231
3882.00,0.0231
3881.00,0.0229
3880.00,0.0227
3879.00,0.0227
3878.00,0.0229
3877.00,0.0230
3876.00,0.0230
3875.00,0.0229
3874.00,0.0228
3873.00,0.0229
3872.00,0.0230
3871.00,0.0230
3870.00,0.0229
3869.00,0.0229
3868.00,0.0230
3867.00,0.0230
3866.00,0.0230
3865.00,0.0229
3864.00,0.0229
3863.00,0.0229
3862.00,0.0229
3861.00,0.0229
3860.00,0.0227
3859.00,0.0227
3858.00,0.0227
3857.00,0.0227
3856.00,0.0227
3855.00,0.0226
3854.00,0.0224
3853.00,0.0225
3852.00,0.0226
3851.00,0.0227
3850.00,0.0225
3849.00,0.0224
3848.00,0.0223
3847.00,0.0223
3846.00,0.0223
3845.00,0.0224
3844.00,0.0224
3843.00,0.0224
3842.00,0.0225
3841.00,0.0226
3840.00,0.0227
3839.00,0.0227
3838.00,0.0226
3837.00,0.0226
3836.00,0.0225
3835.00,0.0226
3834.00,0.0226
3833.00,0.0225
3832.00,0.0224
3831.00,0.0223
3830.00,0.0223
3829.00,0.0223
3828.00,0.0222
3827.00,0.0221
3826.00,0.0221
3825.00,0.0223
3824.00,0.0226
3823.00,0.0227
3822.00,0.0225
3821.00,0.0223
3820.00,0.0223
3819.00,0.0224
3818.00,0.0224
3817.00,0.0222
3816.00,0.0221
3815.00,0.0220
3814.00,0.0221
3813.00,0.0220
3812.00,0.0219
3811.00,0.0218
3810.00,0.0218
3809.00,0.0217
3808.00,0.0217
3807.00,0.0217
3806.00,0.0218
3805.00,0.0221
3804.00,0.0223
3803.00,0.0223
3802.00,0.0221
3801.00,0.0220
3800.00,0.0221
3799.00,0.0221
3798.00,0.0220
3797.00,0.0218
3796.00,0.0217
3795.00,0.0217
3794.00,0.0217
3793.00,0.0216
3792.00,0.0216
3791.00,0.0215
3790.00,0.0215
3789.00,0.0215
3788.00,0.0216
3787.00,0.0216
3786.00,0.0216
3785.00,0.0216
3784.00,0.0216
3783.00,0.0217
3782.00,0.0217
3781.00,0.0216
3780.00,0.0215
3779.00,0.0214
3778.00,0.0214
3777.00,0.0214
3776.00,0.0213
3775.00,0.0213
3774.00,0.0213
3773.00,0.0213
3772.00,0.0213
3771.00,0.0213
3770.00,0.0212
3769.00,0.0212
3768.00,0.0213
3767.00,0.0213
3766.00,0.0213
3765.00,0.0213
3764.00,0.0213
3763.00,0.0213
3762.00,0.0214
3761.00,0.0213
3760.00,0.0212
3759.00,0.0211
3758.00,0.0211
3757.00,0.0211
3756.00,0.0211
3755.00,0.0211
3754.00,0.0211
3753.00,0.0211
3752.00,0.0210
3751.00,0.0210
3750.00,0.0210
3749.00,0.0212
3748.00,0.0215
3747.00,0.0218
3746.00,0.0219
3745.00,0.0215
3744.00,0.0212
3743.00,0.0210
3742.00,0.0210
3741.00,0.0210
3740.00,0.0210
3739.00,0.0211
3738.00,0.0212
3737.00,0.0212
3736.00,0.0212
3735.00,0.0211
3734.00,0.0211
3733.00,0.0210
3732.00,0.0208
3731.00,0.0207
3730.00,0.0206
3729.00,0.0206
3728.00,0.0205
3727.00,0.0205
3726.00,0.0204
3725.00,0.0204
3724.00,0.0204
3723.00,0.0204
3722.00,0.0204
3721.00,0.0204
3720.00,0.0204
3719.00,0.0204
3718.00,0.0203
3717.00,0.0202
3716.00,0.0202
3715.00,0.0203
3714.00,0.0204
3713.00,0.0205
3712.00,0.0205
3711.00,0.0205
3710.00,0.0204
3709.00,0.0202
3708.00,0.0201
3707.00,0.0200
3706.00,0.0201
3705.00,0.0202
3704.00,0.0202
3703.00,0.0202
3702.00,0.0200
3701.00,0.0200
3700.00,0.0199
3699.00,0.0199
3698.00,0.0199
3697.00,0.0198
3696.00,0.0197
3695.00,0.0198
3694.00,0.0198
3693.00,0.0199
3692.00,0.0199
3691.00,0.0201
3690.00,0.0202
3689.00,0.0203
3688.00,0.0202
3687.00,0.0201
3686.00,0.0199
3685.00,0.0199
3684.00,0.0198
3683.00,0.0198
3682.00,0.0197
3681.00,0.0197
3680.00,0.0197
3679.00,0.0198
3678.00,0.0199
3677.00,0.0200
3676.00,0.0199
3675.00,0.0200
3674.00,0.0201
3673.00,0.0204
3672.00,0.0205
3671.00,0.0206
3670.00,0.0206
3669.00,0.0207
3668.00,0.0207
3667.00,0.0207
3666.00,0.0206
3665.00,0.0206
3664.00,0.0206
3663.00,0.0208
3662.00,0.0209
3661.00,0.0211
3660.00,0.0214
3659.00,0.0217
3658.00,0.0219
3657.00,0.0220
3656.00,0.0222
3655.00,0.0224
3654.00,0.0227
3653.00,0.0230
3652.00,0.0231
3651.00,0.0232
3650.00,0.0235
3649.00,0.0239
3648.00,0.0242
3647.00,0.0243
3646.00,0.0243
3645.00,0.0243
3644.00,0.0244
3643.00,0.0245
3642.00,0.0246
3641.00,0.0247
3640.00,0.0248
3639.00,0.0250
3638.00,0.0252
3637.00,0.0254
3636.00,0.0256
3635.00,0.0257
3634.00,0.0259
3633.00,0.0261
3632.00,0.0264
3631.00,0.0267
3630.00,0.0269
3629.00,0.0273
3628.00,0.0276
3627.00,0.0278
3626.00,0.0278
3625.00,0.0277
3624.00,0.0276
3623.00,0.0277
3622.00,0.0279
3621.00,0.0282
3620.00,0.0285
3619.00,0.0288
3618.00,0.0291
3617.00,0.0293
3616.00,0.0294
3615.00,0.0295
3614.00,0.0296
3613.00,0.0297
3612.00,0.0298
3611.00,0.0300
3610.00,0.0302
3609.00,0.0304
3608.00,0.0306
3607.00,0.0308
3606.00,0.0308
3605.00,0.0308
3604.00,0.0307
3603.00,0.0308
3602.00,0.0310
3601.00,0.0312
3600.00,0.0314
3599.00,0.0315
3598.00,0.0316
3597.00,0.0317
3596.00,0.0318
3595.00,0.0320
3594.00,0.0321
3593.00,0.0322
3592.00,0.0323
3591.00,0.0324
3590.00,0.0325
3589.00,0.0327
3588.00,0.0330
3587.00,0.0333
3586.00,0.0336
3585.00,0.0337
3584.00,0.0336
3583.00,0.0335
3582.00,0.0335
3581.00,0.0335
3580.00,0.0335
3579.00,0.0337
3578.00,0.0338
3577.00,0.0340
3576.00,0.0341
3575.00,0.0342
3574.00,0.0343
3573.00,0.0344
3572.00,0.0345
3571.00,0.0346
3570.00,0.0347
3569.00,0.0348
3568.00,0.0351
3567.00,0.0356
3566.00,0.0359
3565.00,0.0360
3564.00,0.0359
3563.00,0.0358
3562.00,0.0358
3561.00,0.0358
3560.00,0.0360
3559.00,0.0361
3558.00,0.0363
3557.00,0.0364
3556.00,0.0366
3555.00,0.0367
3554.00,0.0368
3553.00,0.0369
3552.00,0.0370
3551.00,0.0372
3550.00,0.0374
3549.00,0.0376
3548.00,0.0377
3547.00,0.0378
3546.00,0.0380
3545.00,0.0382
3544.00,0.0383
3543.00,0.0384
3542.00,0.0384
3541.00,0.0384
3540.00,0.0384
3539.00,0.0383
3538.00,0.0383
3537.00,0.0384
3536.00,0.0385
3535.00,0.0387
3534.00,0.0389
3533.00,0.0390
3532.00,0.0392
3531.00,0.0393
3530.00,0.0394
3529.00,0.0395
3528.00,0.0395
3527.00,0.0395
3526.00,0.0397
3525.00,0.0399
3524.00,0.0402
3523.00,0.0404
3522.00,0.0405
3521.00,0.0405
3520.00,0.0404
3519.00,0.0403
3518.00,0.0403
3517.00,0.0403
3516.00,0.0404
3515.00,0.0405
3514.00,0.0407
3513.00,0.0409
3512.00,0.0411
3511.00,0.0412
3510.00,0.0413
3509.00,0.0414
3508.00,0.0414
3507.00,0.0415
3506.00,0.0416
3505.00,0.0417
3504.00,0.0419
3503.00,0.0421
3502.00,0.0422
3501.00,0.0423
3500.00,0.0424
3499.00,0.0424
3498.00,0.0425
3497.00,0.0426
3496.00,0.0427
3495.00,0.0428
3494.00,0.0428
3493.00,0.0428
3492.00,0.0429
3491.00,0.0430
3490.00,0.0430
3489.00,0.0431
3488.00,0.0432
3487.00,0.0433
3486.00,0.0434
3485.00,0.0434
3484.00,0.0435
3483.00,0.0436
3482.00,0.0438
3481.00,0.0440
3480.00,0.0441
3479.00,0.0441
3478.00,0.0441
3477.00,0.0441
3476.00,0.0442
3475.00,0.0443
3474.00,0.0445
3473.00,0.0446
3472.00,0.0447
3471.00,0.0447
3470.00,0.0448
3469.00,0.0449
3468.00,0.0449
3467.00,0.0451
3466.00,0.0452
3465.00,0.0454
3464.00,0.0454
3463.00,0.0454
3462.00,0.0454
3461.00,0.0454
3460.00,0.0455
3459.00,0.0456
3458.00,0.0458
3457.00,0.0459
3456.00,0.0459
3455.00,0.0460
3454.00,0.0460
3453.00,0.0461
3452.00,0.0462
3451.00,0.0463
3450.00,0.0464
3449.00,0.0465
3448.00,0.0466
3447.00,0.0467
3446.00,0.0468
3445.00,0.0469
3444.00,0.0470
3443.00,0.0470
3442.00,0.0470
3441.00,0.0469
3440.00,0.0469
3439.00,0.0469
3438.00,0.0470
3437.00,0.0470
3436.00,0.0471
3435.00,0.0472
3434.00,0.0473
3433.00,0.0473
3432.00,0.0474
3431.00,0.0475
3430.00,0.0476
3429.00,0.0476
3428.00,0.0477
3427.00,0.0478
3426.00,0.0479
3425.00,0.0480
3424.00,0.0482
3423.00,0.0483
3422.00,0.0484
3421.00,0.0485
3420.00,0.0486
3419.00,0.0487
3418.00,0.0487
3417.00,0.0487
3416.00,0.0486
3415.00,0.0486
3414.00,0.0486
3413.00,0.0487
3412.00,0.0488
3411.00,0.0489
3410.00,0.0490
3409.00,0.0491
3408.00,0.0492
3407.00,0.0493
3406.00,0.0494
3405.00,0.0494
3404.00,0.0493
3403.00,0.0493
3402.00,0.0493
3401.00,0.0494
3400.00,0.0495
3399.00,0.0496
3398.00,0.0496
3397.00,0.0496
3396.00,0.0497
3395.00,0.0497
3394.00,0.0498
3393.00,0.0498
3392.00,0.0499
3391.00,0.0499
3390.00,0.0500
3389.00,0.0500
3388.00,0.0501
3387.00,0.0501
3386.00,0.0501
3385.00,0.0501
3384.00,0.0502
3383.00,0.0503
3382.00,0.0503
3381.00,0.0504
3380.00,0.0504
3379.00,0.0505
3378.00,0.0506
3377.00,0.0506
3376.00,0.0506
3375.00,0.0506
3374.00,0.0506
3373.00,0.0506
3372.00,0.0506
3371.00,0.0506
3370.00,0.0506
3369.00,0.0506
3368.00,0.0507
3367.00,0.0508
3366.00,0.0508
3365.00,0.0507
3364.00,0.0507
3363.00,0.0507
3362.00,0.0508
3361.00,0.0510
3360.00,0.0511
3359.00,0.0511
3358.00,0.0511
3357.00,0.0511
3356.00,0.0511
3355.00,0.0511
3354.00,0.0512
3353.00,0.0512
3352.00,0.0512
3351.00,0.0513
3350.00,0.0513
3349.00,0.0513
3348.00,0.0513
3347.00,0.0513
3346.00,0.0512
3345.00,0.0511
3344.00,0.0511
3343.00,0.0511
3342.00,0.0511
3341.00,0.0512
3340.00,0.0513
3339.00,0.0514
3338.00,0.0514
3337.00,0.0514
3336.00,0.0514
3335.00,0.0514
3334.00,0.0514
3333.00,0.0514
3332.00,0.0513
3331.00,0.0513
3330.00,0.0512
3329.00,0.0512
3328.00,0.0512
3327.00,0.0512
3326.00,0.0513
3325.00,0.0514
3324.00,0.0514
3323.00,0.0514
3322.00,0.0514
3321.00,0.0513
3320.00,0.0513
3319.00,0.0513
3318.00,0.0514
3317.00,0.0514
3316.00,0.0513
3315.00,0.0513
3314.00,0.0513
3313.00,0.0513
3312.00,0.0513
3311.00,0.0513
3310.00,0.0513
3309.00,0.0513
3308.00,0.0513
3307.00,0.0514
3306.00,0.0514
3305.00,0.0514
3304.00,0.0514
3303.00,0.0514
3302.00,0.0514
3301.00,0.0514
3300.00,0.0514
3299.00,0.0514
3298.00,0.0514
3297.00,0.0514
3296.00,0.0514
3295.00,0.0514
3294.00,0.0514
3293.00,0.0514
3292.00,0.0514
3291.00,0.0514
3290.00,0.0514
3289.00,0.0515
3288.00,0.0515
3287.00,0.0515
3286.00,0.0515
3285.00,0.0516
3284.00,0.0516
3283.00,0.0517
3282.00,0.0517
3281.00,0.0516
3280.00,0.0516
3279.00,0.0515
3278.00,0.0515
3277.00,0.0515
3276.00,0.0515
3275.00,0.0515
3274.00,0.0515
3273.00,0.0516
3272.00,0.0516
3271.00,0.0517
3270.00,0.0517
3269.00,0.0517
3268.00,0.0517
3267.00,0.0517
3266.00,0.0517
3265.00,0.0516
3264.00,0.0516
3263.00,0.0516
3262.00,0.0516
3261.00,0.0517
3260.00,0.0517
3259.00,0.0518
3258.00,0.0518
3257.00,0.0518
3256.00,0.0517
3255.00,0.0518
3254.00,0.0518
3253.00,0.0518
3252.00,0.0518
3251.00,0.0518
3250.00,0.0518
3249.00,0.0518
3248.00,0.0518
3247.00,0.0518
3246.00,0.0518
3245.00,0.0518
3244.00,0.0518
3243.00,0.0518
3242.00,0.0518
3241.00,0.0518
3240.00,0.0518
3239.00,0.0518
3238.00,0.0519
3237.00,0.0520
3236.00,0.0521
3235.00,0.0522
3234.00,0.0522
3233.00,0.0522
3232.00,0.0522
3231.00,0.0521
3230.00,0.0521
3229.00,0.0520
3228.00,0.0519
3227.00,0.0520
3226.00,0.0520
3225.00,0.0520
3224.00,0.0520
3223.00,0.0520
3222.00,0.0520
3221.00,0.0520
3220.00,0.0519
3219.00,0.0519
3218.00,0.0519
3217.00,0.0520
3216.00,0.0520
3215.00,0.0521
3214.00,0.0522
3213.00,0.0521
3212.00,0.0520
3211.00,0.0519
3210.00,0.0519
3209.00,0.0519
3208.00,0.0520
3207.00,0.0520
3206.00,0.0520
3205.00,0.0520
3204.00,0.0521
3203.00,0.0521
3202.00,0.0521
3201.00,0.0521
3200.00,0.0521
3199.00,0.0521
3198.00,0.0521
3197.00,0.0520
3196.00,0.0520
3195.00,0.0519
3194.00,0.0519
3193.00,0.0518
3192.00,0.0518
3191.00,0.0517
3190.00,0.0517
3189.00,0.0516
3188.00,0.0516
3187.00,0.0515
3186.00,0.0515
3185.00,0.0515
3184.00,0.0516
3183.00,0.0517
3182.00,0.0518
3181.00,0.0518
3180.00,0.0518
3179.00,0.0517
3178.00,0.0516
3177.00,0.0515
3176.00,0.0514
3175.00,0.0513
3174.00,0.0513
3173.00,0.0513
3172.00,0.0513
3171.00,0.0513
3170.00,0.0512
3169.00,0.0512
3168.00,0.0512
3167.00,0.0512
3166.00,0.0512
3165.00,0.0513
3164.00,0.0514
3163.00,0.0513
3162.00,0.0513
3161.00,0.0512
3160.00,0.0510
3159.00,0.0509
3158.00,0.0508
3157.00,0.0508
3156.00,0.0508
3155.00,0.0508
3154.00,0.0509
3153.00,0.0509
3152.00,0.0509
3151.00,0.0508
3150.00,0.0508
3149.00,0.0507
3148.00,0.0506
3147.00,0.0506
3146.00,0.0506
3145.00,0.0505
3144.00,0.0505
3143.00,0.0505
3142.00,0.0505
3141.00,0.0505
3140.00,0.0504
3139.00,0.0504
3138.00,0.0504
3137.00,0.0504
3136.00,0.0504
3135.00,0.0503
3134.00,0.0503
3133.00,0.0502
3132.00,0.0502
3131.00,0.0502
3130.00,0.0502
3129.00,0.0502
3128.00,0.0501
3127.00,0.0501
3126.00,0.0500
3125.00,0.0500
3124.00,0.0499
3123.00,0.0499
3122.00,0.0498
3121.00,0.0498
3120.00,0.0498
3119.00,0.0498
3118.00,0.0499
3117.00,0.0498
3116.00,0.0498
3115.00,0.0497
3114.00,0.0497
3113.00,0.0497
3112.00,0.0497
3111.00,0.0496
3110.00,0.0495
3109.00,0.0495
3108.00,0.0495
3107.00,0.0495
3106.00,0.0495
3105.00,0.0495
3104.00,0.0495
3103.00,0.0494
3102.00,0.0494
3101.00,0.0493
3100.00,0.0493
3099.00,0.0492
3098.00,0.0491
3097.00,0.0491
3096.00,0.0491
3095.00,0.0491
3094.00,0.0492
3093.00,0.0492
3092.00,0.0492
3091.00,0.0492
3090.00,0.0491
3089.00,0.0489
3088.00,0.0488
3087.00,0.0488
3086.00,0.0488
3085.00,0.0489
3084.00,0.0489
3083.00,0.0488
3082.00,0.0488
3081.00,0.0487
3080.00,0.0487
3079.00,0.0486
3078.00,0.0486
3077.00,0.0486
3076.00,0.0486
3075.00,0.0486
3074.00,0.0486
3073.00,0.0486
3072.00,0.0485
3071.00,0.0485
3070.00,0.0485
3069.00,0.0485
3068.00,0.0485
3067.00,0.0484
3066.00,0.0483
3065.00,0.0482
3064.00,0.0481
3063.00,0.0480
3062.00,0.0479
3061.00,0.0479
3060.00,0.0479
3059.00,0.0478
3058.00,0.0478
3057.00,0.0478
3056.00,0.0477
3055.00,0.0477
3054.00,0.0477
3053.00,0.0476
3052.00,0.0476
3051.00,0.0475
3050.00,0.0475
3049.00,0.0475
3048.00,0.0475
3047.00,0.0474
3046.00,0.0473
3045.00,0.0473
3044.00,0.0472
3043.00,0.0471
3042.00,0.0469
3041.00,0.0468
3040.00,0.0467
3039.00,0.0467
3038.00,0.0467
3037.00,0.0467
3036.00,0.0467
3035.00,0.0467
3034.00,0.0467
3033.00,0.0467
3032.00,0.0466
3031.00,0.0465
3030.00,0.0464
3029.00,0.0462
3028.00,0.0461
3027.00,0.0461
3026.00,0.0461
3025.00,0.0460
3024.00,0.0460
3023.00,0.0460
3022.00,0.0460
3021.00,0.0459
3020.00,0.0458
3019.00,0.0457
3018.00,0.0456
3017.00,0.0455
3016.00,0.0454
3015.00,0.0454
3014.00,0.0453
3013.00,0.0452
3012.00,0.0452
3011.00,0.0451
3010.00,0.0450
3009.00,0.0449
3008.00,0.0447
3007.00,0.0446
3006.00,0.0445
3005.00,0.0444
3004.00,0.0443
3003.00,0.0442
3002.00,0.0440
3001.00,0.0438
3000.00,0.0437
2999.00,0.0436
2998.00,0.0434
2997.00,0.0433
2996.00,0.0432
2995.00,0.0432
2994.00,0.0431
2993.00,0.0430
2992.00,0.0429
2991.00,0.0428
2990.00,0.0428
2989.00,0.0427
2988.00,0.0426
2987.00,0.0425
2986.00,0.0422
2985.00,0.0419
2984.00,0.0416
2983.00,0.0414
2982.00,0.0413
2981.00,0.0413
2980.00,0.0414
2979.00,0.0415
2978.00,0.0416
2977.00,0.0418
2976.00,0.0419
2975.00,0.0419
2974.00,0.0419
2973.00,0.0418
2972.00,0.0417
2971.00,0.0418
2970.00,0.0419
2969.00,0.0421
2968.00,0.0422
2967.00,0.0423
2966.00,0.0423
2965.00,0.0423
2964.00,0.0424
2963.00,0.0425
2962.00,0.0426
2961.00,0.0426
2960.00,0.0427
2959.00,0.0426
2958.00,0.0426
2957.00,0.0426
2956.00,0.0427
2955.00,0.0428
2954.00,0.0428
2953.00,0.0429
2952.00,0.0429
2951.00,0.0430
2950.00,0.0430
2949.00,0.0430
2948.00,0.0430
2947.00,0.0430
2946.00,0.0429
2945.00,0.0430
2944.00,0.0430
2943.00,0.0431
2942.00,0.0433
2941.00,0.0434
2940.00,0.0434
2939.00,0.0435
2938.00,0.0435
2937.00,0.0435
2936.00,0.0436
2935.00,0.0437
2934.00,0.0438
2933.00,0.0438
2932.00,0.0439
2931.00,0.0440
2930.00,0.0441
2929.00,0.0441
2928.00,0.0442
2927.00,0.0442
2926.00,0.0442
2925.00,0.0441
2924.00,0.0441
2923.00,0.0441
2922.00,0.0440
2921.00,0.0439
2920.00,0.0438
2919.00,0.0435
2918.00,0.0433
2917.00,0.0431
2916.00,0.0430
2915.00,0.0428
2914.00,0.0428
2913.00,0.0427
2912.00,0.0426
2911.00,0.0426
2910.00,0.0425
2909.00,0.0424
2908.00,0.0423
2907.00,0.0422
2906.00,0.0421
2905.00,0.0420
2904.00,0.0419
2903.00,0.0418
2902.00,0.0418
2901.00,0.0418
2900.00,0.0417
2899.00,0.0416
2898.00,0.0415
2897.00,0.0414
2896.00,0.0413
2895.00,0.0412
2894.00,0.0412
2893.00,0.0411
2892.00,0.0411
2891.00,0.0410
2890.00,0.0410
2889.00,0.0409
2888.00,0.0409
2887.00,0.0408
2886.00,0.0408
2885.00,0.0407
2884.00,0.0405
2883.00,0.0405
2882.00,0.0404
2881.00,0.0404
2880.00,0.0404
2879.00,0.0405
2878.00,0.0405
2877.00,0.0405
2876.00,0.0405
2875.00,0.0405
2874.00,0.0404
2873.00,0.0404
2872.00,0.0403
2871.00,0.0403
2870.00,0.0403
2869.00,0.0403
2868.00,0.0403
2867.00,0.0403
2866.00,0.0403
2865.00,0.0403
2864.00,0.0403
2863.00,0.0403
2862.00,0.0403
2861.00,0.0404
2860.00,0.0405
2859.00,0.0406
2858.00,0.0407
2857.00,0.0408
2856.00,0.0409
2855.00,0.0409
2854.00,0.0409
2853.00,0.0408
2852.00,0.0407
2851.00,0.0407
2850.00,0.0406
2849.00,0.0405
2848.00,0.0403
2847.00,0.0402
2846.00,0.0401
2845.00,0.0400
2844.00,0.0399
2843.00,0.0398
2842.00,0.0396
2841.00,0.0395
2840.00,0.0394
2839.00,0.0392
2838.00,0.0392
2837.00,0.0391
2836.00,0.0392
2835.00,0.0392
2834.00,0.0392
2833.00,0.0391
2832.00,0.0390
2831.00,0.0389
2830.00,0.0388
2829.00,0.0388
2828.00,0.0388
2827.00,0.0388
2826.00,0.0387
2825.00,0.0387
2824.00,0.0386
2823.00,0.0386
2822.00,0.0385
2821.00,0.0384
2820.00,0.0383
2819.00,0.0382
2818.00,0.0382
2817.00,0.0382
2816.00,0.0381
2815.00,0.0381
2814.00,0.0380
2813.00,0.0379
2812.00,0.0379
2811.00,0.0379
2810.00,0.0379
2809.00,0.0378
2808.00,0.0378
2807.00,0.0378
2806.00,0.0378
2805.00,0.0378
2804.00,0.0377
2803.00,0.0377
2802.00,0.0376
2801.00,0.0376
2800.00,0.0376
2799.00,0.0376
2798.00,0.0375
2797.00,0.0375
2796.00,0.0375
2795.00,0.0374
2794.00,0.0374
2793.00,0.0374
2792.00,0.0373
2791.00,0.0373
2790.00,0.0373
2789.00,0.0373
2788.00,0.0372
2787.00,0.0371
2786.00,0.0371
2785.00,0.0371
2784.00,0.0370
2783.00,0.0370
2782.00,0.0369
2781.00,0.0368
2780.00,0.0367
2779.00,0.0367
2778.00,0.0368
2777.00,0.0368
2776.00,0.0368
2775.00,0.0368
2774.00,0.0368
2773.00,0.0367
2772.00,0.0367
2771.00,0.0366
2770.00,0.0365
2769.00,0.0364
2768.00,0.0364
2767.00,0.0364
2766.00,0.0364
2765.00,0.0364
2764.00,0.0363
2763.00,0.0363
2762.00,0.0363
2761.00,0.0363
2760.00,0.0363
2759.00,0.0363
2758.00,0.0362
2757.00,0.0362
2756.00,0.0362
2755.00,0.0361
