Created as New Dataset,Monday, April 03 2023
cm-1,A
4000.00,0.0312
3999.00,0.0312
3998.00,0.0312
3997.00,0.0312
3996.00,0.0312
3995.00,0.0311
3994.00,0.0311
3993.00,0.0310
3992.00,0.0310
3991.00,0.0310
3990.00,0.0310
3989.00,0.0310
3988.00,0.0310
3987.00,0.0309
3986.00,0.0309
3985.00,0.0309
3984.00,0.0309
3983.00,0.0309
3982.00,0.0309
3981.00,0.0309
3980.00,0.0309
3979.00,0.0309
3978.00,0.0309
3977.00,0.0308
3976.00,0.0308
3975.00,0.0307
3974.00,0.0307
3973.00,0.0307
3972.00,0.0308
3971.00,0.0308
3970.00,0.0308
3969.00,0.0308
3968.00,0.0308
3967.00,0.0307
3966.00,0.0306
3965.00,0.0306
3964.00,0.0306
3963.00,0.0307
3962.00,0.0308
3961.00,0.0307
3960.00,0.0306
3959.00,0.0306
3958.00,0.0305
3957.00,0.0305
3956.00,0.0305
3955.00,0.0304
3954.00,0.0303
3953.00,0.0303
3952.00,0.0303
3951.00,0.0303
3950.00,0.0304
3949.00,0.0305
3948.00,0.0305
3947.00,0.0304
3946.00,0.0303
3945.00,0.0302
3944.00,0.0302
3943.00,0.0302
3942.00,0.0301
3941.00,0.0301
3940.00,0.0301
3939.00,0.0302
3938.00,0.0303
3937.00,0.0302
3936.00,0.0302
3935.00,0.0301
3934.00,0.0301
3933.00,0.0301
3932.00,0.0300
3931.00,0.0300
3930.00,0.0300
3929.00,0.0300
3928.00,0.0300
3927.00,0.0300
3926.00,0.0300
3925.00,0.0300
3924.00,0.0300
3923.00,0.0299
3922.00,0.0298
3921.00,0.0298
3920.00,0.0298
3919.00,0.0298
3918.00,0.0299
3917.00,0.0299
3916.00,0.0299
3915.00,0.0299
3914.00,0.0299
3913.00,0.0300
3912.00,0.0300
3911.00,0.0300
3910.00,0.0299
3909.00,0.0297
3908.00,0.0295
3907.00,0.0293
3906.00,0.0291
3905.00,0.0290
3904.00,0.0290
3903.00,0.0289
3902.00,0.0289
3901.00,0.0291
3900.00,0.0293
3899.00,0.0294
3898.00,0.0293
3897.00,0.0293
3896.00,0.0293
3895.00,0.0293
3894.00,0.0293
3893.00,0.0294
3892.00,0.0294
3891.00,0.0293
3890.00,0.0290
3889.00,0.0287
3888.00,0.0288
3887.00,0.0289
3886.00,0.0290
3885.00,0.0289
3884.00,0.0287
3883.00,0.0287
3882.00,0.0289
3881.00,0.0291
3880.00,0.0291
3879.00,0.0289
3878.00,0.0288
3877.00,0.0290
3876.00,0.0292
3875.00,0.0292
3874.00,0.0289
3873.00,0.0286
3872.00,0.0285
3871.00,0.0287
3870.00,0.0288
3869.00,0.0286
3868.00,0.0284
3867.00,0.0285
3866.00,0.0288
3865.00,0.0290
3864.00,0.0291
3863.00,0.0290
3862.00,0.0290
3861.00,0.0290
3860.00,0.0290
3859.00,0.0288
3858.00,0.0284
3857.00,0.0278
3856.00,0.0273
3855.00,0.0273
3854.00,0.0278
3853.00,0.0280
3852.00,0.0278
3851.00,0.0279
3850.00,0.0284
3849.00,0.0288
3848.00,0.0289
3847.00,0.0289
3846.00,0.0288
3845.00,0.0287
3844.00,0.0286
3843.00,0.0284
3842.00,0.0282
3841.00,0.0282
3840.00,0.0282
3839.00,0.0283
3838.00,0.0283
3837.00,0.0282
3836.00,0.0281
3835.00,0.0282
3834.00,0.0284
3833.00,0.0286
3832.00,0.0288
3831.00,0.0287
3830.00,0.0287
3829.00,0.0287
3828.00,0.0287
3827.00,0.0287
3826.00,0.0285
3825.00,0.0282
3824.00,0.0280
3823.00,0.0282
3822.00,0.0284
3821.00,0.0283
3820.00,0.0279
3819.00,0.0276
3818.00,0.0278
3817.00,0.0282
3816.00,0.0285
3815.00,0.0285
3814.00,0.0285
3813.00,0.0286
3812.00,0.0286
3811.00,0.0285
3810.00,0.0282
3809.00,0.0281
3808.00,0.0282
3807.00,0.0283
3806.00,0.0281
3805.00,0.0279
3804.00,0.0280
3803.00,0.0282
3802.00,0.0285
3801.00,0.0283
3800.00,0.0280
3799.00,0.0279
3798.00,0.0281
3797.00,0.0283
3796.00,0.0283
3795.00,0.0283
3794.00,0.0282
3793.00,0.0284
3792.00,0.0285
3791.00,0.0285
3790.00,0.0285
3789.00,0.0285
3788.00,0.0285
3787.00,0.0285
3786.00,0.0285
3785.00,0.0285
3784.00,0.0284
3783.00,0.0283
3782.00,0.0282
3781.00,0.0282
3780.00,0.0282
3779.00,0.0282
3778.00,0.0280
3777.00,0.0280
3776.00,0.0281
3775.00,0.0281
3774.00,0.0280
3773.00,0.0278
3772.00,0.0278
3771.00,0.0278
3770.00,0.0277
3769.00,0.0275
3768.00,0.0274
3767.00,0.0276
3766.00,0.0277
3765.00,0.0278
3764.00,0.0276
3763.00,0.0275
3762.00,0.0276
3761.00,0.0276
3760.00,0.0277
3759.00,0.0276
3758.00,0.0274
3757.00,0.0272
3756.00,0.0270
3755.00,0.0267
3754.00,0.0265
3753.00,0.0264
3752.00,0.0265
3751.00,0.0267
3750.00,0.0267
3749.00,0.0265
3748.00,0.0263
3747.00,0.0263
3746.00,0.0266
3745.00,0.0268
3744.00,0.0266
3743.00,0.0263
3742.00,0.0263
3741.00,0.0268
3740.00,0.0270
3739.00,0.0269
3738.00,0.0267
3737.00,0.0266
3736.00,0.0266
3735.00,0.0264
3734.00,0.0263
3733.00,0.0263
3732.00,0.0264
3731.00,0.0266
3730.00,0.0267
3729.00,0.0269
3728.00,0.0270
3727.00,0.0270
3726.00,0.0269
3725.00,0.0267
3724.00,0.0266
3723.00,0.0265
3722.00,0.0266
3721.00,0.0267
3720.00,0.0267
3719.00,0.0268
3718.00,0.0268
3717.00,0.0267
3716.00,0.0265
3715.00,0.0263
3714.00,0.0263
3713.00,0.0263
3712.00,0.0265
3711.00,0.0264
3710.00,0.0263
3709.00,0.0263
3708.00,0.0264
3707.00,0.0267
3706.00,0.0269
3705.00,0.0270
3704.00,0.0270
3703.00,0.0269
3702.00,0.0268
3701.00,0.0267
3700.00,0.0267
3699.00,0.0267
3698.00,0.0269
3697.00,0.0270
3696.00,0.0269
3695.00,0.0267
3694.00,0.0265
3693.00,0.0262
3692.00,0.0260
3691.00,0.0260
3690.00,0.0262
3689.00,0.0263
3688.00,0.0261
3687.00,0.0260
3686.00,0.0261
3685.00,0.0264
3684.00,0.0265
3683.00,0.0264
3682.00,0.0262
3681.00,0.0260
3680.00,0.0256
3679.00,0.0252
3678.00,0.0248
3677.00,0.0248
3676.00,0.0249
3675.00,0.0248
3674.00,0.0244
3673.00,0.0244
3672.00,0.0248
3671.00,0.0253
3670.00,0.0257
3669.00,0.0256
3668.00,0.0255
3667.00,0.0257
3666.00,0.0260
3665.00,0.0262
3664.00,0.0263
3663.00,0.0263
3662.00,0.0263
3661.00,0.0263
3660.00,0.0262
3659.00,0.0262
3658.00,0.0263
3657.00,0.0264
3656.00,0.0264
3655.00,0.0262
3654.00,0.0260
3653.00,0.0258
3652.00,0.0257
3651.00,0.0256
3650.00,0.0257
3649.00,0.0259
3648.00,0.0259
3647.00,0.0259
3646.00,0.0261
3645.00,0.0265
3644.00,0.0269
3643.00,0.0273
3642.00,0.0275
3641.00,0.0276
3640.00,0.0277
3639.00,0.0277
3638.00,0.0278
3637.00,0.0278
3636.00,0.0278
3635.00,0.0278
3634.00,0.0278
3633.00,0.0275
3632.00,0.0272
3631.00,0.0271
3630.00,0.0274
3629.00,0.0278
3628.00,0.0279
3627.00,0.0278
3626.00,0.0280
3625.00,0.0283
3624.00,0.0285
3623.00,0.0284
3622.00,0.0284
3621.00,0.0285
3620.00,0.0287
3619.00,0.0288
3618.00,0.0288
3617.00,0.0287
3616.00,0.0289
3615.00,0.0292
3614.00,0.0293
3613.00,0.0293
3612.00,0.0292
3611.00,0.0292
3610.00,0.0294
3609.00,0.0298
3608.00,0.0301
3607.00,0.0301
3606.00,0.0302
3605.00,0.0302
3604.00,0.0304
3603.00,0.0306
3602.00,0.0308
3601.00,0.0310
3600.00,0.0311
3599.00,0.0310
3598.00,0.0309
3597.00,0.0308
3596.00,0.0309
3595.00,0.0310
3594.00,0.0311
3593.00,0.0310
3592.00,0.0310
3591.00,0.0309
3590.00,0.0309
3589.00,0.0311
3588.00,0.0314
3587.00,0.0315
3586.00,0.0316
3585.00,0.0317
3584.00,0.0319
3583.00,0.0321
3582.00,0.0323
3581.00,0.0323
3580.00,0.0324
3579.00,0.0325
3578.00,0.0326
3577.00,0.0327
3576.00,0.0329
3575.00,0.0330
3574.00,0.0331
3573.00,0.0331
3572.00,0.0329
3571.00,0.0327
3570.00,0.0324
3569.00,0.0324
3568.00,0.0327
3567.00,0.0331
3566.00,0.0333
3565.00,0.0333
3564.00,0.0334
3563.00,0.0335
3562.00,0.0337
3561.00,0.0339
3560.00,0.0340
3559.00,0.0341
3558.00,0.0343
3557.00,0.0344
3556.00,0.0345
3555.00,0.0347
3554.00,0.0348
3553.00,0.0349
3552.00,0.0350
3551.00,0.0350
3550.00,0.0349
3549.00,0.0349
3548.00,0.0350
3547.00,0.0352
3546.00,0.0354
3545.00,0.0356
3544.00,0.0357
3543.00,0.0357
3542.00,0.0358
3541.00,0.0358
3540.00,0.0358
3539.00,0.0358
3538.00,0.0358
3537.00,0.0359
3536.00,0.0359
3535.00,0.0361
3534.00,0.0362
3533.00,0.0363
3532.00,0.0364
3531.00,0.0364
3530.00,0.0364
3529.00,0.0364
3528.00,0.0363
3527.00,0.0363
3526.00,0.0365
3525.00,0.0367
3524.00,0.0369
3523.00,0.0371
3522.00,0.0372
3521.00,0.0372
3520.00,0.0372
3519.00,0.0371
3518.00,0.0371
3517.00,0.0372
3516.00,0.0372
3515.00,0.0373
3514.00,0.0374
3513.00,0.0375
3512.00,0.0377
3511.00,0.0378
3510.00,0.0378
3509.00,0.0378
3508.00,0.0378
3507.00,0.0378
3506.00,0.0378
3505.00,0.0380
3504.00,0.0381
3503.00,0.0383
3502.00,0.0384
3501.00,0.0384
3500.00,0.0384
3499.00,0.0385
3498.00,0.0387
3497.00,0.0388
3496.00,0.0389
3495.00,0.0390
3494.00,0.0390
3493.00,0.0390
3492.00,0.0390
3491.00,0.0390
3490.00,0.0390
3489.00,0.0390
3488.00,0.0391
3487.00,0.0392
3486.00,0.0392
3485.00,0.0392
3484.00,0.0392
3483.00,0.0393
3482.00,0.0394
3481.00,0.0395
3480.00,0.0396
3479.00,0.0396
3478.00,0.0397
3477.00,0.0398
3476.00,0.0399
3475.00,0.0400
3474.00,0.0401
3473.00,0.0402
3472.00,0.0403
3471.00,0.0404
3470.00,0.0404
3469.00,0.0405
3468.00,0.0405
3467.00,0.0406
3466.00,0.0407
3465.00,0.0407
3464.00,0.0408
3463.00,0.0407
3462.00,0.0406
3461.00,0.0406
3460.00,0.0407
3459.00,0.0409
3458.00,0.0410
3457.00,0.0411
3456.00,0.0411
3455.00,0.0411
3454.00,0.0411
3453.00,0.0412
3452.00,0.0412
3451.00,0.0413
3450.00,0.0413
3449.00,0.0414
3448.00,0.0415
3447.00,0.0415
3446.00,0.0416
3445.00,0.0416
3444.00,0.0417
3443.00,0.0418
3442.00,0.0418
3441.00,0.0418
3440.00,0.0417
3439.00,0.0417
3438.00,0.0418
3437.00,0.0419
3436.00,0.0419
3435.00,0.0420
3434.00,0.0421
3433.00,0.0422
3432.00,0.0423
3431.00,0.0424
3430.00,0.0424
3429.00,0.0424
3428.00,0.0424
3427.00,0.0424
3426.00,0.0425
3425.00,0.0426
3424.00,0.0427
3423.00,0.0427
3422.00,0.0428
3421.00,0.0428
3420.00,0.0429
3419.00,0.0430
3418.00,0.0430
3417.00,0.0431
3416.00,0.0431
3415.00,0.0430
3414.00,0.0430
3413.00,0.0431
3412.00,0.0431
3411.00,0.0432
3410.00,0.0433
3409.00,0.0434
3408.00,0.0435
3407.00,0.0435
3406.00,0.0436
3405.00,0.0436
3404.00,0.0436
3403.00,0.0436
3402.00,0.0436
3401.00,0.0436
3400.00,0.0437
3399.00,0.0438
3398.00,0.0438
3397.00,0.0438
3396.00,0.0437
3395.00,0.0437
3394.00,0.0438
3393.00,0.0439
3392.00,0.0440
3391.00,0.0441
3390.00,0.0441
3389.00,0.0441
3388.00,0.0441
3387.00,0.0440
3386.00,0.0440
3385.00,0.0441
3384.00,0.0442
3383.00,0.0443
3382.00,0.0443
3381.00,0.0444
3380.00,0.0444
3379.00,0.0445
3378.00,0.0445
3377.00,0.0445
3376.00,0.0445
3375.00,0.0445
3374.00,0.0445
3373.00,0.0445
3372.00,0.0445
3371.00,0.0445
3370.00,0.0446
3369.00,0.0446
3368.00,0.0447
3367.00,0.0447
3366.00,0.0447
3365.00,0.0447
3364.00,0.0446
3363.00,0.0447
3362.00,0.0448
3361.00,0.0450
3360.00,0.0451
3359.00,0.0451
3358.00,0.0451
3357.00,0.0451
3356.00,0.0451
3355.00,0.0452
3354.00,0.0452
3353.00,0.0452
3352.00,0.0452
3351.00,0.0452
3350.00,0.0453
3349.00,0.0453
3348.00,0.0453
3347.00,0.0453
3346.00,0.0453
3345.00,0.0453
3344.00,0.0453
3343.00,0.0453
3342.00,0.0453
3341.00,0.0453
3340.00,0.0454
3339.00,0.0455
3338.00,0.0455
3337.00,0.0455
3336.00,0.0454
3335.00,0.0454
3334.00,0.0454
3333.00,0.0454
3332.00,0.0454
3331.00,0.0454
3330.00,0.0453
3329.00,0.0453
3328.00,0.0453
3327.00,0.0454
3326.00,0.0455
3325.00,0.0456
3324.00,0.0457
3323.00,0.0457
3322.00,0.0457
3321.00,0.0457
3320.00,0.0457
3319.00,0.0457
3318.00,0.0457
3317.00,0.0457
3316.00,0.0457
3315.00,0.0457
3314.00,0.0457
3313.00,0.0457
3312.00,0.0457
3311.00,0.0457
3310.00,0.0458
3309.00,0.0459
3308.00,0.0460
3307.00,0.0460
3306.00,0.0459
3305.00,0.0459
3304.00,0.0458
3303.00,0.0458
3302.00,0.0459
3301.00,0.0459
3300.00,0.0459
3299.00,0.0459
3298.00,0.0460
3297.00,0.0460
3296.00,0.0461
3295.00,0.0462
3294.00,0.0462
3293.00,0.0461
3292.00,0.0461
3291.00,0.0460
3290.00,0.0460
3289.00,0.0460
3288.00,0.0461
3287.00,0.0461
3286.00,0.0461
3285.00,0.0462
3284.00,0.0462
3283.00,0.0462
3282.00,0.0462
3281.00,0.0462
3280.00,0.0462
3279.00,0.0462
3278.00,0.0462
3277.00,0.0462
3276.00,0.0463
3275.00,0.0463
3274.00,0.0463
3273.00,0.0463
3272.00,0.0463
3271.00,0.0464
3270.00,0.0464
3269.00,0.0465
3268.00,0.0465
3267.00,0.0465
3266.00,0.0464
3265.00,0.0463
3264.00,0.0463
3263.00,0.0462
3262.00,0.0463
3261.00,0.0463
3260.00,0.0464
3259.00,0.0464
3258.00,0.0464
3257.00,0.0464
3256.00,0.0463
3255.00,0.0463
3254.00,0.0464
3253.00,0.0465
3252.00,0.0465
3251.00,0.0465
3250.00,0.0465
3249.00,0.0464
3248.00,0.0464
3247.00,0.0464
3246.00,0.0464
3245.00,0.0465
3244.00,0.0465
3243.00,0.0465
3242.00,0.0465
3241.00,0.0464
3240.00,0.0464
3239.00,0.0465
3238.00,0.0466
3237.00,0.0466
3236.00,0.0467
3235.00,0.0468
3234.00,0.0468
3233.00,0.0468
3232.00,0.0468
3231.00,0.0467
3230.00,0.0466
3229.00,0.0466
3228.00,0.0465
3227.00,0.0466
3226.00,0.0466
3225.00,0.0466
3224.00,0.0466
3223.00,0.0466
3222.00,0.0467
3221.00,0.0467
3220.00,0.0466
3219.00,0.0466
3218.00,0.0466
3217.00,0.0466
3216.00,0.0467
3215.00,0.0468
3214.00,0.0468
3213.00,0.0468
3212.00,0.0467
3211.00,0.0466
3210.00,0.0465
3209.00,0.0465
3208.00,0.0465
3207.00,0.0466
3206.00,0.0466
3205.00,0.0467
3204.00,0.0467
3203.00,0.0467
3202.00,0.0467
3201.00,0.0467
3200.00,0.0467
3199.00,0.0467
3198.00,0.0467
3197.00,0.0467
3196.00,0.0467
3195.00,0.0466
3194.00,0.0466
3193.00,0.0466
3192.00,0.0466
3191.00,0.0465
3190.00,0.0465
3189.00,0.0464
3188.00,0.0464
3187.00,0.0464
3186.00,0.0464
3185.00,0.0465
3184.00,0.0465
3183.00,0.0466
3182.00,0.0466
3181.00,0.0466
3180.00,0.0466
3179.00,0.0465
3178.00,0.0464
3177.00,0.0463
3176.00,0.0463
3175.00,0.0463
3174.00,0.0464
3173.00,0.0464
3172.00,0.0464
3171.00,0.0463
3170.00,0.0463
3169.00,0.0462
3168.00,0.0462
3167.00,0.0463
3166.00,0.0463
3165.00,0.0464
3164.00,0.0465
3163.00,0.0465
3162.00,0.0465
3161.00,0.0464
3160.00,0.0463
3159.00,0.0461
3158.00,0.0460
3157.00,0.0460
3156.00,0.0460
3155.00,0.0461
3154.00,0.0462
3153.00,0.0462
3152.00,0.0462
3151.00,0.0461
3150.00,0.0461
3149.00,0.0461
3148.00,0.0461
3147.00,0.0460
3146.00,0.0460
3145.00,0.0460
3144.00,0.0460
3143.00,0.0460
3142.00,0.0460
3141.00,0.0460
3140.00,0.0459
3139.00,0.0460
3138.00,0.0460
3137.00,0.0460
3136.00,0.0460
3135.00,0.0460
3134.00,0.0459
3133.00,0.0459
3132.00,0.0459
3131.00,0.0459
3130.00,0.0459
3129.00,0.0459
3128.00,0.0459
3127.00,0.0458
3126.00,0.0458
3125.00,0.0457
3124.00,0.0457
3123.00,0.0457
3122.00,0.0457
3121.00,0.0456
3120.00,0.0456
3119.00,0.0456
3118.00,0.0456
3117.00,0.0456
3116.00,0.0456
3115.00,0.0456
3114.00,0.0456
3113.00,0.0456
3112.00,0.0455
3111.00,0.0455
3110.00,0.0454
3109.00,0.0454
3108.00,0.0454
3107.00,0.0454
3106.00,0.0455
3105.00,0.0455
3104.00,0.0455
3103.00,0.0455
3102.00,0.0454
3101.00,0.0454
3100.00,0.0453
3099.00,0.0453
3098.00,0.0452
3097.00,0.0452
3096.00,0.0453
3095.00,0.0454
3094.00,0.0454
3093.00,0.0454
3092.00,0.0454
3091.00,0.0453
3090.00,0.0452
3089.00,0.0451
3088.00,0.0450
3087.00,0.0450
3086.00,0.0451
3085.00,0.0451
3084.00,0.0452
3083.00,0.0452
3082.00,0.0452
3081.00,0.0452
3080.00,0.0452
3079.00,0.0452
3078.00,0.0452
3077.00,0.0451
3076.00,0.0451
3075.00,0.0451
3074.00,0.0451
3073.00,0.0451
3072.00,0.0451
3071.00,0.0451
3070.00,0.0451
3069.00,0.0450
3068.00,0.0450
3067.00,0.0450
3066.00,0.0450
3065.00,0.0449
3064.00,0.0448
3063.00,0.0448
3062.00,0.0448
3061.00,0.0448
3060.00,0.0448
3059.00,0.0448
3058.00,0.0448
3057.00,0.0448
3056.00,0.0448
3055.00,0.0448
3054.00,0.0447
3053.00,0.0447
3052.00,0.0446
3051.00,0.0446
3050.00,0.0447
3049.00,0.0447
3048.00,0.0447
3047.00,0.0447
3046.00,0.0446
3045.00,0.0446
3044.00,0.0445
3043.00,0.0445
3042.00,0.0444
3041.00,0.0443
3040.00,0.0443
3039.00,0.0443
3038.00,0.0443
3037.00,0.0443
3036.00,0.0444
3035.00,0.0444
3034.00,0.0443
3033.00,0.0443
3032.00,0.0443
3031.00,0.0443
3030.00,0.0442
3029.00,0.0441
3028.00,0.0440
3027.00,0.0440
3026.00,0.0440
3025.00,0.0439
3024.00,0.0439
3023.00,0.0439
3022.00,0.0439
3021.00,0.0439
3020.00,0.0438
3019.00,0.0438
3018.00,0.0437
3017.00,0.0436
3016.00,0.0436
3015.00,0.0436
3014.00,0.0435
3013.00,0.0434
3012.00,0.0433
3011.00,0.0432
3010.00,0.0431
3009.00,0.0429
3008.00,0.0427
3007.00,0.0426
3006.00,0.0425
3005.00,0.0424
3004.00,0.0423
3003.00,0.0421
3002.00,0.0420
3001.00,0.0418
3000.00,0.0416
2999.00,0.0415
2998.00,0.0414
2997.00,0.0412
2996.00,0.0412
2995.00,0.0411
2994.00,0.0410
2993.00,0.0410
2992.00,0.0409
2991.00,0.0408
2990.00,0.0407
2989.00,0.0406
2988.00,0.0405
2987.00,0.0403
2986.00,0.0400
2985.00,0.0396
2984.00,0.0392
2983.00,0.0389
2982.00,0.0387
2981.00,0.0387
2980.00,0.0388
2979.00,0.0390
2978.00,0.0393
2977.00,0.0395
2976.00,0.0397
2975.00,0.0397
2974.00,0.0397
2973.00,0.0396
2972.00,0.0396
2971.00,0.0396
2970.00,0.0397
2969.00,0.0400
2968.00,0.0402
2967.00,0.0403
2966.00,0.0404
2965.00,0.0404
2964.00,0.0405
2963.00,0.0406
2962.00,0.0408
2961.00,0.0408
2960.00,0.0409
2959.00,0.0409
2958.00,0.0409
2957.00,0.0409
2956.00,0.0410
2955.00,0.0412
2954.00,0.0413
2953.00,0.0414
2952.00,0.0415
2951.00,0.0415
2950.00,0.0416
2949.00,0.0416
2948.00,0.0417
2947.00,0.0417
2946.00,0.0417
2945.00,0.0418
2944.00,0.0419
2943.00,0.0420
2942.00,0.0421
2941.00,0.0422
2940.00,0.0422
2939.00,0.0422
2938.00,0.0422
2937.00,0.0422
2936.00,0.0423
2935.00,0.0423
2934.00,0.0424
2933.00,0.0424
2932.00,0.0424
2931.00,0.0425
2930.00,0.0425
2929.00,0.0425
2928.00,0.0425
2927.00,0.0426
2926.00,0.0425
2925.00,0.0425
2924.00,0.0425
2923.00,0.0424
2922.00,0.0423
2921.00,0.0422
2920.00,0.0421
2919.00,0.0420
2918.00,0.0419
2917.00,0.0418
2916.00,0.0417
2915.00,0.0417
2914.00,0.0417
2913.00,0.0417
2912.00,0.0417
2911.00,0.0417
2910.00,0.0417
2909.00,0.0416
2908.00,0.0415
2907.00,0.0414
2906.00,0.0414
2905.00,0.0413
2904.00,0.0413
2903.00,0.0412
2902.00,0.0411
2901.00,0.0411
2900.00,0.0411
2899.00,0.0410
2898.00,0.0410
2897.00,0.0410
2896.00,0.0409
2895.00,0.0409
2894.00,0.0408
2893.00,0.0408
2892.00,0.0407
2891.00,0.0407
2890.00,0.0407
2889.00,0.0406
2888.00,0.0406
2887.00,0.0406
2886.00,0.0405
2885.00,0.0404
2884.00,0.0404
2883.00,0.0403
2882.00,0.0404
2881.00,0.0404
2880.00,0.0404
2879.00,0.0405
2878.00,0.0405
2877.00,0.0406
2876.00,0.0406
2875.00,0.0406
2874.00,0.0406
2873.00,0.0405
2872.00,0.0405
2871.00,0.0405
2870.00,0.0405
2869.00,0.0405
2868.00,0.0405
2867.00,0.0405
2866.00,0.0405
2865.00,0.0405
2864.00,0.0405
2863.00,0.0406
2862.00,0.0406
2861.00,0.0407
2860.00,0.0408
2859.00,0.0409
2858.00,0.0410
2857.00,0.0411
2856.00,0.0411
2855.00,0.0410
2854.00,0.0409
2853.00,0.0408
2852.00,0.0408
2851.00,0.0408
2850.00,0.0408
2849.00,0.0407
2848.00,0.0407
2847.00,0.0406
2846.00,0.0406
2845.00,0.0405
2844.00,0.0405
2843.00,0.0404
2842.00,0.0404
2841.00,0.0403
2840.00,0.0402
2839.00,0.0401
2838.00,0.0401
2837.00,0.0401
2836.00,0.0401
2835.00,0.0402
2834.00,0.0402
2833.00,0.0401
2832.00,0.0400
2831.00,0.0399
2830.00,0.0398
2829.00,0.0398
2828.00,0.0398
2827.00,0.0398
2826.00,0.0398
2825.00,0.0398
2824.00,0.0398
2823.00,0.0398
2822.00,0.0397
2821.00,0.0396
2820.00,0.0395
2819.00,0.0395
2818.00,0.0394
2817.00,0.0394
2816.00,0.0394
2815.00,0.0394
2814.00,0.0393
2813.00,0.0393
2812.00,0.0393
2811.00,0.0392
2810.00,0.0392
2809.00,0.0392
2808.00,0.0392
2807.00,0.0392
2806.00,0.0392
2805.00,0.0392
2804.00,0.0392
2803.00,0.0391
2802.00,0.0391
2801.00,0.0391
2800.00,0.0391
2799.00,0.0391
2798.00,0.0390
2797.00,0.0390
2796.00,0.0390
2795.00,0.0389
2794.00,0.0389
2793.00,0.0388
2792.00,0.0388
2791.00,0.0388
2790.00,0.0388
2789.00,0.0388
2788.00,0.0388
2787.00,0.0387
2786.00,0.0387
2785.00,0.0387
2784.00,0.0386
2783.00,0.0386
2782.00,0.0385
2781.00,0.0384
2780.00,0.0383
2779.00,0.0383
2778.00,0.0383
2777.00,0.0384
2776.00,0.0384
2775.00,0.0384
2774.00,0.0383
2773.00,0.0383
2772.00,0.0382
2771.00,0.0382
2770.00,0.0381
2769.00,0.0380
2768.00,0.0380
2767.00,0.0380
2766.00,0.0380
2765.00,0.0380
2764.00,0.0380
2763.00,0.0380
2762.00,0.0379
2761.00,0.0379
2760.00,0.0379
2759.00,0.0379
2758.00,0.0379
2757.00,0.0379
2756.00,0.0378
2755.00,0.0378
