Created as New Dataset,Monday, April 03 2023
cm-1,A
4000.00,0.0137
3999.00,0.0137
3998.00,0.0137
3997.00,0.0137
3996.00,0.0136
3995.00,0.0136
3994.00,0.0136
3993.00,0.0135
3992.00,0.0135
3991.00,0.0135
3990.00,0.0135
3989.00,0.0134
3988.00,0.0134
3987.00,0.0134
3986.00,0.0135
3985.00,0.0135
3984.00,0.0135
3983.00,0.0135
3982.00,0.0135
3981.00,0.0135
3980.00,0.0135
3979.00,0.0135
3978.00,0.0134
3977.00,0.0134
3976.00,0.0133
3975.00,0.0133
3974.00,0.0132
3973.00,0.0133
3972.00,0.0133
3971.00,0.0134
3970.00,0.0134
3969.00,0.0134
3968.00,0.0134
3967.00,0.0133
3966.00,0.0132
3965.00,0.0132
3964.00,0.0133
3963.00,0.0134
3962.00,0.0134
3961.00,0.0134
3960.00,0.0133
3959.00,0.0133
3958.00,0.0132
3957.00,0.0132
3956.00,0.0132
3955.00,0.0132
3954.00,0.0132
3953.00,0.0132
3952.00,0.0132
3951.00,0.0132
3950.00,0.0133
3949.00,0.0133
3948.00,0.0134
3947.00,0.0134
3946.00,0.0134
3945.00,0.0133
3944.00,0.0132
3943.00,0.0131
3942.00,0.0130
3941.00,0.0130
3940.00,0.0130
3939.00,0.0131
3938.00,0.0131
3937.00,0.0131
3936.00,0.0131
3935.00,0.0131
3934.00,0.0131
3933.00,0.0131
3932.00,0.0130
3931.00,0.0130
3930.00,0.0130
3929.00,0.0130
3928.00,0.0130
3927.00,0.0131
3926.00,0.0131
3925.00,0.0130
3924.00,0.0130
3923.00,0.0130
3922.00,0.0130
3921.00,0.0130
3920.00,0.0130
3919.00,0.0130
3918.00,0.0130
3917.00,0.0130
3916.00,0.0130
3915.00,0.0129
3914.00,0.0129
3913.00,0.0129
3912.00,0.0128
3911.00,0.0128
3910.00,0.0128
3909.00,0.0128
3908.00,0.0128
3907.00,0.0128
3906.00,0.0127
3905.00,0.0127
3904.00,0.0128
3903.00,0.0128
3902.00,0.0129
3901.00,0.0130
3900.00,0.0130
3899.00,0.0129
3898.00,0.0129
3897.00,0.0128
3896.00,0.0129
3895.00,0.0128
3894.00,0.0128
3893.00,0.0128
3892.00,0.0127
3891.00,0.0126
3890.00,0.0125
3889.00,0.0125
3888.00,0.0125
3887.00,0.0125
3886.00,0.0125
3885.00,0.0125
3884.00,0.0125
3883.00,0.0125
3882.00,0.0125
3881.00,0.0124
3880.00,0.0123
3879.00,0.0123
3878.00,0.0125
3877.00,0.0127
3876.00,0.0128
3875.00,0.0127
3874.00,0.0126
3873.00,0.0125
3872.00,0.0125
3871.00,0.0126
3870.00,0.0126
3869.00,0.0125
3868.00,0.0125
3867.00,0.0126
3866.00,0.0126
3865.00,0.0126
3864.00,0.0126
3863.00,0.0126
3862.00,0.0126
3861.00,0.0127
3860.00,0.0126
3859.00,0.0126
3858.00,0.0124
3857.00,0.0121
3856.00,0.0119
3855.00,0.0119
3854.00,0.0120
3853.00,0.0121
3852.00,0.0120
3851.00,0.0120
3850.00,0.0121
3849.00,0.0121
3848.00,0.0122
3847.00,0.0122
3846.00,0.0123
3845.00,0.0123
3844.00,0.0124
3843.00,0.0124
3842.00,0.0124
3841.00,0.0124
3840.00,0.0125
3839.00,0.0125
3838.00,0.0124
3837.00,0.0122
3836.00,0.0122
3835.00,0.0122
3834.00,0.0123
3833.00,0.0123
3832.00,0.0123
3831.00,0.0123
3830.00,0.0123
3829.00,0.0123
3828.00,0.0123
3827.00,0.0122
3826.00,0.0121
3825.00,0.0121
3824.00,0.0122
3823.00,0.0124
3822.00,0.0125
3821.00,0.0124
3820.00,0.0122
3819.00,0.0122
3818.00,0.0121
3817.00,0.0120
3816.00,0.0119
3815.00,0.0118
3814.00,0.0119
3813.00,0.0119
3812.00,0.0119
3811.00,0.0119
3810.00,0.0118
3809.00,0.0118
3808.00,0.0119
3807.00,0.0120
3806.00,0.0120
3805.00,0.0122
3804.00,0.0124
3803.00,0.0124
3802.00,0.0124
3801.00,0.0122
3800.00,0.0121
3799.00,0.0120
3798.00,0.0119
3797.00,0.0118
3796.00,0.0117
3795.00,0.0116
3794.00,0.0117
3793.00,0.0117
3792.00,0.0118
3791.00,0.0117
3790.00,0.0118
3789.00,0.0118
3788.00,0.0118
3787.00,0.0119
3786.00,0.0119
3785.00,0.0119
3784.00,0.0118
3783.00,0.0118
3782.00,0.0118
3781.00,0.0118
3780.00,0.0117
3779.00,0.0116
3778.00,0.0116
3777.00,0.0116
3776.00,0.0116
3775.00,0.0116
3774.00,0.0116
3773.00,0.0115
3772.00,0.0116
3771.00,0.0116
3770.00,0.0115
3769.00,0.0115
3768.00,0.0115
3767.00,0.0115
3766.00,0.0115
3765.00,0.0115
3764.00,0.0115
3763.00,0.0116
3762.00,0.0116
3761.00,0.0116
3760.00,0.0116
3759.00,0.0115
3758.00,0.0114
3757.00,0.0114
3756.00,0.0113
3755.00,0.0113
3754.00,0.0112
3753.00,0.0112
3752.00,0.0114
3751.00,0.0115
3750.00,0.0116
3749.00,0.0115
3748.00,0.0115
3747.00,0.0116
3746.00,0.0115
3745.00,0.0114
3744.00,0.0111
3743.00,0.0110
3742.00,0.0111
3741.00,0.0113
3740.00,0.0114
3739.00,0.0114
3738.00,0.0115
3737.00,0.0115
3736.00,0.0115
3735.00,0.0114
3734.00,0.0112
3733.00,0.0111
3732.00,0.0111
3731.00,0.0110
3730.00,0.0111
3729.00,0.0112
3728.00,0.0112
3727.00,0.0111
3726.00,0.0111
3725.00,0.0110
3724.00,0.0110
3723.00,0.0109
3722.00,0.0109
3721.00,0.0110
3720.00,0.0110
3719.00,0.0110
3718.00,0.0110
3717.00,0.0109
3716.00,0.0109
3715.00,0.0109
3714.00,0.0110
3713.00,0.0112
3712.00,0.0113
3711.00,0.0112
3710.00,0.0109
3709.00,0.0108
3708.00,0.0108
3707.00,0.0109
3706.00,0.0111
3705.00,0.0112
3704.00,0.0112
3703.00,0.0111
3702.00,0.0110
3701.00,0.0109
3700.00,0.0109
3699.00,0.0110
3698.00,0.0110
3697.00,0.0110
3696.00,0.0109
3695.00,0.0109
3694.00,0.0109
3693.00,0.0109
3692.00,0.0110
3691.00,0.0112
3690.00,0.0113
3689.00,0.0112
3688.00,0.0110
3687.00,0.0109
3686.00,0.0109
3685.00,0.0109
3684.00,0.0109
3683.00,0.0109
3682.00,0.0109
3681.00,0.0108
3680.00,0.0107
3679.00,0.0106
3678.00,0.0105
3677.00,0.0106
3676.00,0.0106
3675.00,0.0105
3674.00,0.0105
3673.00,0.0106
3672.00,0.0109
3671.00,0.0111
3670.00,0.0111
3669.00,0.0111
3668.00,0.0111
3667.00,0.0111
3666.00,0.0112
3665.00,0.0112
3664.00,0.0113
3663.00,0.0114
3662.00,0.0116
3661.00,0.0117
3660.00,0.0118
3659.00,0.0120
3658.00,0.0121
3657.00,0.0123
3656.00,0.0124
3655.00,0.0124
3654.00,0.0125
3653.00,0.0127
3652.00,0.0127
3651.00,0.0129
3650.00,0.0131
3649.00,0.0132
3648.00,0.0130
3647.00,0.0130
3646.00,0.0131
3645.00,0.0133
3644.00,0.0135
3643.00,0.0137
3642.00,0.0138
3641.00,0.0139
3640.00,0.0140
3639.00,0.0141
3638.00,0.0142
3637.00,0.0143
3636.00,0.0145
3635.00,0.0146
3634.00,0.0147
3633.00,0.0147
3632.00,0.0147
3631.00,0.0148
3630.00,0.0151
3629.00,0.0155
3628.00,0.0157
3627.00,0.0158
3626.00,0.0158
3625.00,0.0159
3624.00,0.0158
3623.00,0.0158
3622.00,0.0159
3621.00,0.0161
3620.00,0.0164
3619.00,0.0166
3618.00,0.0167
3617.00,0.0168
3616.00,0.0169
3615.00,0.0169
3614.00,0.0170
3613.00,0.0170
3612.00,0.0170
3611.00,0.0172
3610.00,0.0174
3609.00,0.0176
3608.00,0.0178
3607.00,0.0178
3606.00,0.0178
3605.00,0.0178
3604.00,0.0178
3603.00,0.0179
3602.00,0.0181
3601.00,0.0183
3600.00,0.0184
3599.00,0.0185
3598.00,0.0185
3597.00,0.0185
3596.00,0.0185
3595.00,0.0185
3594.00,0.0186
3593.00,0.0186
3592.00,0.0185
3591.00,0.0185
3590.00,0.0186
3589.00,0.0187
3588.00,0.0190
3587.00,0.0191
3586.00,0.0192
3585.00,0.0193
3584.00,0.0194
3583.00,0.0194
3582.00,0.0194
3581.00,0.0194
3580.00,0.0195
3579.00,0.0196
3578.00,0.0196
3577.00,0.0197
3576.00,0.0198
3575.00,0.0199
3574.00,0.0200
3573.00,0.0200
3572.00,0.0200
3571.00,0.0199
3570.00,0.0199
3569.00,0.0200
3568.00,0.0202
3567.00,0.0205
3566.00,0.0207
3565.00,0.0207
3564.00,0.0207
3563.00,0.0207
3562.00,0.0207
3561.00,0.0208
3560.00,0.0209
3559.00,0.0210
3558.00,0.0210
3557.00,0.0211
3556.00,0.0212
3555.00,0.0213
3554.00,0.0214
3553.00,0.0215
3552.00,0.0215
3551.00,0.0216
3550.00,0.0217
3549.00,0.0218
3548.00,0.0218
3547.00,0.0219
3546.00,0.0221
3545.00,0.0222
3544.00,0.0223
3543.00,0.0223
3542.00,0.0223
3541.00,0.0223
3540.00,0.0222
3539.00,0.0221
3538.00,0.0221
3537.00,0.0221
3536.00,0.0222
3535.00,0.0223
3534.00,0.0225
3533.00,0.0226
3532.00,0.0227
3531.00,0.0228
3530.00,0.0227
3529.00,0.0226
3528.00,0.0226
3527.00,0.0226
3526.00,0.0228
3525.00,0.0230
3524.00,0.0232
3523.00,0.0233
3522.00,0.0233
3521.00,0.0233
3520.00,0.0232
3519.00,0.0231
3518.00,0.0231
3517.00,0.0231
3516.00,0.0231
3515.00,0.0231
3514.00,0.0233
3513.00,0.0234
3512.00,0.0236
3511.00,0.0237
3510.00,0.0237
3509.00,0.0237
3508.00,0.0237
3507.00,0.0237
3506.00,0.0237
3505.00,0.0238
3504.00,0.0239
3503.00,0.0240
3502.00,0.0241
3501.00,0.0241
3500.00,0.0241
3499.00,0.0242
3498.00,0.0243
3497.00,0.0244
3496.00,0.0244
3495.00,0.0244
3494.00,0.0244
3493.00,0.0244
3492.00,0.0244
3491.00,0.0244
3490.00,0.0244
3489.00,0.0244
3488.00,0.0245
3487.00,0.0245
3486.00,0.0246
3485.00,0.0246
3484.00,0.0246
3483.00,0.0247
3482.00,0.0247
3481.00,0.0248
3480.00,0.0248
3479.00,0.0249
3478.00,0.0249
3477.00,0.0249
3476.00,0.0250
3475.00,0.0250
3474.00,0.0251
3473.00,0.0252
3472.00,0.0252
3471.00,0.0253
3470.00,0.0254
3469.00,0.0254
3468.00,0.0255
3467.00,0.0255
3466.00,0.0256
3465.00,0.0256
3464.00,0.0257
3463.00,0.0256
3462.00,0.0255
3461.00,0.0255
3460.00,0.0256
3459.00,0.0257
3458.00,0.0258
3457.00,0.0258
3456.00,0.0258
3455.00,0.0257
3454.00,0.0257
3453.00,0.0258
3452.00,0.0259
3451.00,0.0260
3450.00,0.0260
3449.00,0.0261
3448.00,0.0262
3447.00,0.0262
3446.00,0.0263
3445.00,0.0264
3444.00,0.0264
3443.00,0.0264
3442.00,0.0263
3441.00,0.0262
3440.00,0.0262
3439.00,0.0261
3438.00,0.0262
3437.00,0.0262
3436.00,0.0262
3435.00,0.0262
3434.00,0.0263
3433.00,0.0263
3432.00,0.0263
3431.00,0.0264
3430.00,0.0264
3429.00,0.0265
3428.00,0.0265
3427.00,0.0265
3426.00,0.0266
3425.00,0.0267
3424.00,0.0268
3423.00,0.0269
3422.00,0.0270
3421.00,0.0270
3420.00,0.0270
3419.00,0.0270
3418.00,0.0270
3417.00,0.0269
3416.00,0.0269
3415.00,0.0268
3414.00,0.0269
3413.00,0.0269
3412.00,0.0270
3411.00,0.0271
3410.00,0.0271
3409.00,0.0272
3408.00,0.0272
3407.00,0.0273
3406.00,0.0273
3405.00,0.0273
3404.00,0.0273
3403.00,0.0272
3402.00,0.0272
3401.00,0.0273
3400.00,0.0273
3399.00,0.0274
3398.00,0.0274
3397.00,0.0273
3396.00,0.0273
3395.00,0.0273
3394.00,0.0273
3393.00,0.0274
3392.00,0.0275
3391.00,0.0276
3390.00,0.0276
3389.00,0.0276
3388.00,0.0276
3387.00,0.0276
3386.00,0.0276
3385.00,0.0276
3384.00,0.0276
3383.00,0.0277
3382.00,0.0277
3381.00,0.0278
3380.00,0.0278
3379.00,0.0279
3378.00,0.0279
3377.00,0.0279
3376.00,0.0279
3375.00,0.0278
3374.00,0.0278
3373.00,0.0278
3372.00,0.0277
3371.00,0.0277
3370.00,0.0277
3369.00,0.0277
3368.00,0.0278
3367.00,0.0278
3366.00,0.0278
3365.00,0.0278
3364.00,0.0277
3363.00,0.0278
3362.00,0.0279
3361.00,0.0281
3360.00,0.0282
3359.00,0.0282
3358.00,0.0281
3357.00,0.0281
3356.00,0.0281
3355.00,0.0281
3354.00,0.0281
3353.00,0.0281
3352.00,0.0281
3351.00,0.0281
3350.00,0.0282
3349.00,0.0282
3348.00,0.0282
3347.00,0.0282
3346.00,0.0282
3345.00,0.0281
3344.00,0.0281
3343.00,0.0281
3342.00,0.0281
3341.00,0.0282
3340.00,0.0283
3339.00,0.0283
3338.00,0.0283
3337.00,0.0283
3336.00,0.0283
3335.00,0.0283
3334.00,0.0283
3333.00,0.0282
3332.00,0.0282
3331.00,0.0281
3330.00,0.0280
3329.00,0.0280
3328.00,0.0280
3327.00,0.0281
3326.00,0.0282
3325.00,0.0283
3324.00,0.0283
3323.00,0.0283
3322.00,0.0283
3321.00,0.0283
3320.00,0.0283
3319.00,0.0283
3318.00,0.0283
3317.00,0.0283
3316.00,0.0283
3315.00,0.0283
3314.00,0.0283
3313.00,0.0282
3312.00,0.0282
3311.00,0.0282
3310.00,0.0282
3309.00,0.0283
3308.00,0.0284
3307.00,0.0284
3306.00,0.0284
3305.00,0.0284
3304.00,0.0283
3303.00,0.0283
3302.00,0.0283
3301.00,0.0284
3300.00,0.0284
3299.00,0.0284
3298.00,0.0284
3297.00,0.0284
3296.00,0.0284
3295.00,0.0285
3294.00,0.0285
3293.00,0.0285
3292.00,0.0285
3291.00,0.0284
3290.00,0.0284
3289.00,0.0285
3288.00,0.0285
3287.00,0.0285
3286.00,0.0285
3285.00,0.0286
3284.00,0.0286
3283.00,0.0286
3282.00,0.0286
3281.00,0.0285
3280.00,0.0285
3279.00,0.0285
3278.00,0.0285
3277.00,0.0285
3276.00,0.0285
3275.00,0.0285
3274.00,0.0286
3273.00,0.0286
3272.00,0.0287
3271.00,0.0287
3270.00,0.0288
3269.00,0.0288
3268.00,0.0288
3267.00,0.0288
3266.00,0.0287
3265.00,0.0286
3264.00,0.0285
3263.00,0.0285
3262.00,0.0285
3261.00,0.0285
3260.00,0.0286
3259.00,0.0286
3258.00,0.0287
3257.00,0.0286
3256.00,0.0286
3255.00,0.0286
3254.00,0.0286
3253.00,0.0287
3252.00,0.0287
3251.00,0.0287
3250.00,0.0287
3249.00,0.0287
3248.00,0.0287
3247.00,0.0287
3246.00,0.0287
3245.00,0.0288
3244.00,0.0288
3243.00,0.0288
3242.00,0.0288
3241.00,0.0288
3240.00,0.0288
3239.00,0.0288
3238.00,0.0288
3237.00,0.0289
3236.00,0.0290
3235.00,0.0291
3234.00,0.0291
3233.00,0.0291
3232.00,0.0291
3231.00,0.0290
3230.00,0.0290
3229.00,0.0289
3228.00,0.0289
3227.00,0.0288
3226.00,0.0289
3225.00,0.0289
3224.00,0.0289
3223.00,0.0289
3222.00,0.0290
3221.00,0.0290
3220.00,0.0290
3219.00,0.0289
3218.00,0.0289
3217.00,0.0289
3216.00,0.0290
3215.00,0.0290
3214.00,0.0291
3213.00,0.0290
3212.00,0.0290
3211.00,0.0290
3210.00,0.0289
3209.00,0.0290
3208.00,0.0290
3207.00,0.0290
3206.00,0.0290
3205.00,0.0290
3204.00,0.0291
3203.00,0.0291
3202.00,0.0291
3201.00,0.0291
3200.00,0.0290
3199.00,0.0290
3198.00,0.0290
3197.00,0.0290
3196.00,0.0290
3195.00,0.0291
3194.00,0.0291
3193.00,0.0291
3192.00,0.0291
3191.00,0.0290
3190.00,0.0290
3189.00,0.0289
3188.00,0.0288
3187.00,0.0288
3186.00,0.0288
3185.00,0.0288
3184.00,0.0289
3183.00,0.0290
3182.00,0.0290
3181.00,0.0291
3180.00,0.0291
3179.00,0.0290
3178.00,0.0289
3177.00,0.0288
3176.00,0.0287
3175.00,0.0287
3174.00,0.0288
3173.00,0.0288
3172.00,0.0288
3171.00,0.0288
3170.00,0.0289
3169.00,0.0288
3168.00,0.0288
3167.00,0.0288
3166.00,0.0289
3165.00,0.0289
3164.00,0.0290
3163.00,0.0290
3162.00,0.0290
3161.00,0.0289
3160.00,0.0288
3159.00,0.0287
3158.00,0.0286
3157.00,0.0286
3156.00,0.0286
3155.00,0.0286
3154.00,0.0287
3153.00,0.0288
3152.00,0.0288
3151.00,0.0288
3150.00,0.0287
3149.00,0.0287
3148.00,0.0287
3147.00,0.0287
3146.00,0.0286
3145.00,0.0286
3144.00,0.0286
3143.00,0.0286
3142.00,0.0286
3141.00,0.0286
3140.00,0.0286
3139.00,0.0286
3138.00,0.0286
3137.00,0.0287
3136.00,0.0287
3135.00,0.0287
3134.00,0.0287
3133.00,0.0286
3132.00,0.0286
3131.00,0.0286
3130.00,0.0286
3129.00,0.0286
3128.00,0.0285
3127.00,0.0285
3126.00,0.0285
3125.00,0.0286
3124.00,0.0286
3123.00,0.0285
3122.00,0.0285
3121.00,0.0285
3120.00,0.0285
3119.00,0.0285
3118.00,0.0286
3117.00,0.0286
3116.00,0.0286
3115.00,0.0286
3114.00,0.0285
3113.00,0.0285
3112.00,0.0285
3111.00,0.0285
3110.00,0.0285
3109.00,0.0285
3108.00,0.0285
3107.00,0.0285
3106.00,0.0286
3105.00,0.0286
3104.00,0.0286
3103.00,0.0286
3102.00,0.0285
3101.00,0.0284
3100.00,0.0284
3099.00,0.0283
3098.00,0.0283
3097.00,0.0283
3096.00,0.0284
3095.00,0.0285
3094.00,0.0286
3093.00,0.0286
3092.00,0.0286
3091.00,0.0285
3090.00,0.0284
3089.00,0.0283
3088.00,0.0282
3087.00,0.0282
3086.00,0.0283
3085.00,0.0284
3084.00,0.0284
3083.00,0.0284
3082.00,0.0284
3081.00,0.0284
3080.00,0.0284
3079.00,0.0284
3078.00,0.0284
3077.00,0.0284
3076.00,0.0284
3075.00,0.0284
3074.00,0.0284
3073.00,0.0284
3072.00,0.0284
3071.00,0.0284
3070.00,0.0284
3069.00,0.0284
3068.00,0.0285
3067.00,0.0285
3066.00,0.0284
3065.00,0.0283
3064.00,0.0282
3063.00,0.0282
3062.00,0.0282
3061.00,0.0282
3060.00,0.0282
3059.00,0.0282
3058.00,0.0282
3057.00,0.0282
3056.00,0.0282
3055.00,0.0282
3054.00,0.0282
3053.00,0.0281
3052.00,0.0281
3051.00,0.0281
3050.00,0.0282
3049.00,0.0282
3048.00,0.0282
3047.00,0.0282
3046.00,0.0282
3045.00,0.0282
3044.00,0.0281
3043.00,0.0281
3042.00,0.0280
3041.00,0.0279
3040.00,0.0279
3039.00,0.0279
3038.00,0.0279
3037.00,0.0279
3036.00,0.0280
3035.00,0.0279
3034.00,0.0279
3033.00,0.0279
3032.00,0.0279
3031.00,0.0279
3030.00,0.0278
3029.00,0.0277
3028.00,0.0276
3027.00,0.0276
3026.00,0.0276
3025.00,0.0276
3024.00,0.0276
3023.00,0.0276
3022.00,0.0276
3021.00,0.0276
3020.00,0.0275
3019.00,0.0274
3018.00,0.0273
3017.00,0.0273
3016.00,0.0273
3015.00,0.0273
3014.00,0.0272
3013.00,0.0271
3012.00,0.0270
3011.00,0.0269
3010.00,0.0268
3009.00,0.0267
3008.00,0.0265
3007.00,0.0263
3006.00,0.0262
3005.00,0.0261
3004.00,0.0260
3003.00,0.0258
3002.00,0.0256
3001.00,0.0254
3000.00,0.0253
2999.00,0.0251
2998.00,0.0250
2997.00,0.0249
2996.00,0.0248
2995.00,0.0248
2994.00,0.0247
2993.00,0.0247
2992.00,0.0246
2991.00,0.0245
2990.00,0.0244
2989.00,0.0243
2988.00,0.0242
2987.00,0.0240
2986.00,0.0237
2985.00,0.0233
2984.00,0.0228
2983.00,0.0225
2982.00,0.0223
2981.00,0.0222
2980.00,0.0224
2979.00,0.0226
2978.00,0.0228
2977.00,0.0231
2976.00,0.0233
2975.00,0.0234
2974.00,0.0233
2973.00,0.0232
2972.00,0.0231
2971.00,0.0231
2970.00,0.0232
2969.00,0.0234
2968.00,0.0236
2967.00,0.0237
2966.00,0.0238
2965.00,0.0239
2964.00,0.0240
2963.00,0.0241
2962.00,0.0242
2961.00,0.0242
2960.00,0.0242
2959.00,0.0242
2958.00,0.0242
2957.00,0.0243
2956.00,0.0244
2955.00,0.0245
2954.00,0.0246
2953.00,0.0247
2952.00,0.0248
2951.00,0.0249
2950.00,0.0249
2949.00,0.0250
2948.00,0.0250
2947.00,0.0250
2946.00,0.0251
2945.00,0.0251
2944.00,0.0252
2943.00,0.0252
2942.00,0.0253
2941.00,0.0253
2940.00,0.0253
2939.00,0.0252
2938.00,0.0252
2937.00,0.0252
2936.00,0.0252
2935.00,0.0252
2934.00,0.0252
2933.00,0.0252
2932.00,0.0251
2931.00,0.0251
2930.00,0.0251
2929.00,0.0251
2928.00,0.0251
2927.00,0.0250
2926.00,0.0250
2925.00,0.0249
2924.00,0.0249
2923.00,0.0248
2922.00,0.0248
2921.00,0.0247
2920.00,0.0246
2919.00,0.0245
2918.00,0.0245
2917.00,0.0244
2916.00,0.0244
2915.00,0.0245
2914.00,0.0245
2913.00,0.0246
2912.00,0.0246
2911.00,0.0247
2910.00,0.0247
2909.00,0.0247
2908.00,0.0246
2907.00,0.0246
2906.00,0.0245
2905.00,0.0245
2904.00,0.0245
2903.00,0.0245
2902.00,0.0245
2901.00,0.0245
2900.00,0.0245
2899.00,0.0245
2898.00,0.0244
2897.00,0.0244
2896.00,0.0244
2895.00,0.0243
2894.00,0.0243
2893.00,0.0242
2892.00,0.0242
2891.00,0.0242
2890.00,0.0242
2889.00,0.0241
2888.00,0.0242
2887.00,0.0242
2886.00,0.0242
2885.00,0.0241
2884.00,0.0241
2883.00,0.0241
2882.00,0.0241
2881.00,0.0242
2880.00,0.0242
2879.00,0.0243
2878.00,0.0243
2877.00,0.0243
2876.00,0.0243
2875.00,0.0243
2874.00,0.0242
2873.00,0.0242
2872.00,0.0242
2871.00,0.0242
2870.00,0.0242
2869.00,0.0243
2868.00,0.0243
2867.00,0.0243
2866.00,0.0244
2865.00,0.0244
2864.00,0.0244
2863.00,0.0244
2862.00,0.0244
2861.00,0.0244
2860.00,0.0244
2859.00,0.0245
2858.00,0.0246
2857.00,0.0246
2856.00,0.0246
2855.00,0.0245
2854.00,0.0245
2853.00,0.0244
2852.00,0.0244
2851.00,0.0244
2850.00,0.0245
2849.00,0.0245
2848.00,0.0244
2847.00,0.0244
2846.00,0.0244
2845.00,0.0244
2844.00,0.0245
2843.00,0.0245
2842.00,0.0245
2841.00,0.0244
2840.00,0.0244
2839.00,0.0243
2838.00,0.0243
2837.00,0.0243
2836.00,0.0244
2835.00,0.0244
2834.00,0.0245
2833.00,0.0244
2832.00,0.0244
2831.00,0.0243
2830.00,0.0242
2829.00,0.0242
2828.00,0.0242
2827.00,0.0242
2826.00,0.0243
2825.00,0.0243
2824.00,0.0243
2823.00,0.0242
2822.00,0.0242
2821.00,0.0241
2820.00,0.0241
2819.00,0.0240
2818.00,0.0240
2817.00,0.0240
2816.00,0.0240
2815.00,0.0239
2814.00,0.0239
2813.00,0.0239
2812.00,0.0238
2811.00,0.0238
2810.00,0.0238
2809.00,0.0238
2808.00,0.0238
2807.00,0.0238
2806.00,0.0238
2805.00,0.0239
2804.00,0.0239
2803.00,0.0238
2802.00,0.0238
2801.00,0.0238
2800.00,0.0238
2799.00,0.0238
2798.00,0.0238
2797.00,0.0237
2796.00,0.0237
2795.00,0.0237
2794.00,0.0236
2793.00,0.0236
2792.00,0.0236
2791.00,0.0236
2790.00,0.0236
2789.00,0.0236
2788.00,0.0236
2787.00,0.0236
2786.00,0.0235
2785.00,0.0235
2784.00,0.0235
2783.00,0.0234
2782.00,0.0234
2781.00,0.0233
2780.00,0.0232
2779.00,0.0232
2778.00,0.0233
2777.00,0.0233
2776.00,0.0233
2775.00,0.0233
2774.00,0.0233
2773.00,0.0233
2772.00,0.0232
2771.00,0.0232
2770.00,0.0231
2769.00,0.0230
2768.00,0.0230
2767.00,0.0230
2766.00,0.0230
2765.00,0.0230
2764.00,0.0230
2763.00,0.0230
2762.00,0.0230
2761.00,0.0230
2760.00,0.0230
2759.00,0.0229
2758.00,0.0229
2757.00,0.0228
2756.00,0.0228
2755.00,0.0228
