Created as New Dataset,
cm-1,A
4000.00,0.0206
3999.00,0.0206
3998.00,0.0205
3997.00,0.0205
3996.00,0.0207
3995.00,0.0207
3994.00,0.0208
3993.00,0.0208
3992.00,0.0208
3991.00,0.0207
3990.00,0.0207
3989.00,0.0207
3988.00,0.0207
3987.00,0.0207
3986.00,0.0207
3985.00,0.0207
3984.00,0.0207
3983.00,0.0207
3982.00,0.0208
3981.00,0.0208
3980.00,0.0208
3979.00,0.0208
3978.00,0.0208
3977.00,0.0208
3976.00,0.0208
3975.00,0.0208
3974.00,0.0209
3973.00,0.0209
3972.00,0.0209
3971.00,0.0208
3970.00,0.0208
3969.00,0.0207
3968.00,0.0206
3967.00,0.0206
3966.00,0.0206
3965.00,0.0207
3964.00,0.0207
3963.00,0.0208
3962.00,0.0208
3961.00,0.0209
3960.00,0.0209
3959.00,0.0210
3958.00,0.0209
3957.00,0.0209
3956.00,0.0209
3955.00,0.0209
3954.00,0.0209
3953.00,0.0210
3952.00,0.0210
3951.00,0.0210
3950.00,0.0210
3949.00,0.0210
3948.00,0.0210
3947.00,0.0211
3946.00,0.0212
3945.00,0.0213
3944.00,0.0213
3943.00,0.0213
3942.00,0.0212
3941.00,0.0211
3940.00,0.0211
3939.00,0.0211
3938.00,0.0210
3937.00,0.0209
3936.00,0.0209
3935.00,0.0210
3934.00,0.0211
3933.00,0.0212
3932.00,0.0213
3931.00,0.0213
3930.00,0.0213
3929.00,0.0213
3928.00,0.0214
3927.00,0.0214
3926.00,0.0214
3925.00,0.0213
3924.00,0.0213
3923.00,0.0213
3922.00,0.0213
3921.00,0.0213
3920.00,0.0212
3919.00,0.0212
3918.00,0.0213
3917.00,0.0213
3916.00,0.0212
3915.00,0.0212
3914.00,0.0212
3913.00,0.0211
3912.00,0.0210
3911.00,0.0209
3910.00,0.0209
3909.00,0.0210
3908.00,0.0212
3907.00,0.0214
3906.00,0.0215
3905.00,0.0215
3904.00,0.0216
3903.00,0.0217
3902.00,0.0220
3901.00,0.0222
3900.00,0.0222
3899.00,0.0220
3898.00,0.0217
3897.00,0.0216
3896.00,0.0215
3895.00,0.0215
3894.00,0.0215
3893.00,0.0214
3892.00,0.0213
3891.00,0.0212
3890.00,0.0212
3889.00,0.0214
3888.00,0.0217
3887.00,0.0217
3886.00,0.0216
3885.00,0.0215
3884.00,0.0218
3883.00,0.0222
3882.00,0.0223
3881.00,0.0221
3880.00,0.0217
3879.00,0.0215
3878.00,0.0216
3877.00,0.0219
3876.00,0.0219
3875.00,0.0218
3874.00,0.0216
3873.00,0.0217
3872.00,0.0220
3871.00,0.0221
3870.00,0.0219
3869.00,0.0217
3868.00,0.0219
3867.00,0.0221
3866.00,0.0221
3865.00,0.0218
3864.00,0.0216
3863.00,0.0216
3862.00,0.0216
3861.00,0.0216
3860.00,0.0215
3859.00,0.0214
3858.00,0.0214
3857.00,0.0216
3856.00,0.0219
3855.00,0.0220
3854.00,0.0219
3853.00,0.0219
3852.00,0.0220
3851.00,0.0221
3850.00,0.0220
3849.00,0.0217
3848.00,0.0214
3847.00,0.0213
3846.00,0.0212
3845.00,0.0213
3844.00,0.0213
3843.00,0.0214
3842.00,0.0216
3841.00,0.0219
3840.00,0.0221
3839.00,0.0222
3838.00,0.0221
3837.00,0.0221
3836.00,0.0221
3835.00,0.0220
3834.00,0.0220
3833.00,0.0218
3832.00,0.0216
3831.00,0.0214
3830.00,0.0214
3829.00,0.0215
3828.00,0.0215
3827.00,0.0214
3826.00,0.0212
3825.00,0.0213
3824.00,0.0217
3823.00,0.0220
3822.00,0.0219
3821.00,0.0216
3820.00,0.0216
3819.00,0.0220
3818.00,0.0222
3817.00,0.0220
3816.00,0.0215
3815.00,0.0212
3814.00,0.0213
3813.00,0.0213
3812.00,0.0212
3811.00,0.0210
3810.00,0.0210
3809.00,0.0211
3808.00,0.0210
3807.00,0.0209
3806.00,0.0209
3805.00,0.0213
3804.00,0.0218
3803.00,0.0220
3802.00,0.0217
3801.00,0.0215
3800.00,0.0216
3799.00,0.0219
3798.00,0.0219
3797.00,0.0216
3796.00,0.0213
3795.00,0.0211
3794.00,0.0212
3793.00,0.0211
3792.00,0.0210
3791.00,0.0209
3790.00,0.0209
3789.00,0.0209
3788.00,0.0209
3787.00,0.0210
3786.00,0.0210
3785.00,0.0210
3784.00,0.0210
3783.00,0.0211
3782.00,0.0213
3781.00,0.0214
3780.00,0.0212
3779.00,0.0211
3778.00,0.0210
3777.00,0.0211
3776.00,0.0211
3775.00,0.0209
3774.00,0.0208
3773.00,0.0208
3772.00,0.0209
3771.00,0.0210
3770.00,0.0209
3769.00,0.0210
3768.00,0.0212
3767.00,0.0213
3766.00,0.0213
3765.00,0.0211
3764.00,0.0210
3763.00,0.0212
3762.00,0.0214
3761.00,0.0214
3760.00,0.0213
3759.00,0.0213
3758.00,0.0213
3757.00,0.0212
3756.00,0.0212
3755.00,0.0213
3754.00,0.0214
3753.00,0.0212
3752.00,0.0211
3751.00,0.0212
3750.00,0.0213
3749.00,0.0214
3748.00,0.0216
3747.00,0.0220
3746.00,0.0222
3745.00,0.0219
3744.00,0.0216
3743.00,0.0215
3742.00,0.0216
3741.00,0.0216
3740.00,0.0214
3739.00,0.0212
3738.00,0.0213
3737.00,0.0214
3736.00,0.0216
3735.00,0.0219
3734.00,0.0221
3733.00,0.0221
3732.00,0.0218
3731.00,0.0214
3730.00,0.0213
3729.00,0.0213
3728.00,0.0214
3727.00,0.0214
3726.00,0.0215
3725.00,0.0218
3724.00,0.0221
3723.00,0.0222
3722.00,0.0223
3721.00,0.0223
3720.00,0.0224
3719.00,0.0224
3718.00,0.0224
3717.00,0.0224
3716.00,0.0225
3715.00,0.0228
3714.00,0.0231
3713.00,0.0234
3712.00,0.0239
3711.00,0.0245
3710.00,0.0250
3709.00,0.0254
3708.00,0.0256
3707.00,0.0257
3706.00,0.0259
3705.00,0.0263
3704.00,0.0269
3703.00,0.0275
3702.00,0.0282
3701.00,0.0287
3700.00,0.0291
3699.00,0.0294
3698.00,0.0296
3697.00,0.0297
3696.00,0.0298
3695.00,0.0299
3694.00,0.0301
3693.00,0.0303
3692.00,0.0304
3691.00,0.0305
3690.00,0.0306
3689.00,0.0305
3688.00,0.0302
3687.00,0.0298
3686.00,0.0294
3685.00,0.0289
3684.00,0.0284
3683.00,0.0280
3682.00,0.0277
3681.00,0.0274
3680.00,0.0271
3679.00,0.0271
3678.00,0.0273
3677.00,0.0276
3676.00,0.0277
3675.00,0.0278
3674.00,0.0279
3673.00,0.0281
3672.00,0.0282
3671.00,0.0280
3670.00,0.0278
3669.00,0.0279
3668.00,0.0281
3667.00,0.0281
3666.00,0.0280
3665.00,0.0278
3664.00,0.0277
3663.00,0.0277
3662.00,0.0278
3661.00,0.0279
3660.00,0.0281
3659.00,0.0285
3658.00,0.0289
3657.00,0.0294
3656.00,0.0299
3655.00,0.0303
3654.00,0.0308
3653.00,0.0313
3652.00,0.0314
3651.00,0.0313
3650.00,0.0316
3649.00,0.0324
3648.00,0.0330
3647.00,0.0330
3646.00,0.0325
3645.00,0.0320
3644.00,0.0314
3643.00,0.0310
3642.00,0.0305
3641.00,0.0302
3640.00,0.0300
3639.00,0.0299
3638.00,0.0297
3637.00,0.0297
3636.00,0.0297
3635.00,0.0297
3634.00,0.0296
3633.00,0.0296
3632.00,0.0298
3631.00,0.0302
3630.00,0.0306
3629.00,0.0312
3628.00,0.0319
3627.00,0.0325
3626.00,0.0331
3625.00,0.0335
3624.00,0.0339
3623.00,0.0345
3622.00,0.0352
3621.00,0.0357
3620.00,0.0359
3619.00,0.0356
3618.00,0.0351
3617.00,0.0345
3616.00,0.0339
3615.00,0.0331
3614.00,0.0324
3613.00,0.0319
3612.00,0.0316
3611.00,0.0315
3610.00,0.0314
3609.00,0.0312
3608.00,0.0311
3607.00,0.0311
3606.00,0.0310
3605.00,0.0309
3604.00,0.0308
3603.00,0.0306
3602.00,0.0305
3601.00,0.0304
3600.00,0.0304
3599.00,0.0304
3598.00,0.0305
3597.00,0.0305
3596.00,0.0305
3595.00,0.0306
3594.00,0.0305
3593.00,0.0304
3592.00,0.0303
3591.00,0.0303
3590.00,0.0304
3589.00,0.0306
3588.00,0.0308
3587.00,0.0311
3586.00,0.0312
3585.00,0.0311
3584.00,0.0310
3583.00,0.0307
3582.00,0.0306
3581.00,0.0305
3580.00,0.0305
3579.00,0.0306
3578.00,0.0306
3577.00,0.0306
3576.00,0.0306
3575.00,0.0306
3574.00,0.0305
3573.00,0.0305
3572.00,0.0306
3571.00,0.0307
3570.00,0.0309
3569.00,0.0312
3568.00,0.0315
3567.00,0.0319
3566.00,0.0322
3565.00,0.0322
3564.00,0.0321
3563.00,0.0319
3562.00,0.0317
3561.00,0.0315
3560.00,0.0314
3559.00,0.0314
3558.00,0.0313
3557.00,0.0312
3556.00,0.0312
3555.00,0.0312
3554.00,0.0314
3553.00,0.0315
3552.00,0.0317
3551.00,0.0318
3550.00,0.0318
3549.00,0.0318
3548.00,0.0319
3547.00,0.0320
3546.00,0.0322
3545.00,0.0323
3544.00,0.0323
3543.00,0.0323
3542.00,0.0322
3541.00,0.0321
3540.00,0.0321
3539.00,0.0322
3538.00,0.0323
3537.00,0.0323
3536.00,0.0324
3535.00,0.0324
3534.00,0.0324
3533.00,0.0324
3532.00,0.0324
3531.00,0.0325
3530.00,0.0326
3529.00,0.0327
3528.00,0.0328
3527.00,0.0329
3526.00,0.0331
3525.00,0.0332
3524.00,0.0332
3523.00,0.0332
3522.00,0.0332
3521.00,0.0332
3520.00,0.0333
3519.00,0.0333
3518.00,0.0333
3517.00,0.0333
3516.00,0.0333
3515.00,0.0334
3514.00,0.0334
3513.00,0.0335
3512.00,0.0336
3511.00,0.0337
3510.00,0.0338
3509.00,0.0338
3508.00,0.0339
3507.00,0.0339
3506.00,0.0340
3505.00,0.0340
3504.00,0.0341
3503.00,0.0342
3502.00,0.0342
3501.00,0.0343
3500.00,0.0343
3499.00,0.0343
3498.00,0.0343
3497.00,0.0343
3496.00,0.0343
3495.00,0.0344
3494.00,0.0344
3493.00,0.0345
3492.00,0.0345
3491.00,0.0345
3490.00,0.0345
3489.00,0.0345
3488.00,0.0346
3487.00,0.0347
3486.00,0.0348
3485.00,0.0349
3484.00,0.0349
3483.00,0.0350
3482.00,0.0351
3481.00,0.0352
3480.00,0.0353
3479.00,0.0353
3478.00,0.0353
3477.00,0.0353
3476.00,0.0353
3475.00,0.0354
3474.00,0.0354
3473.00,0.0355
3472.00,0.0356
3471.00,0.0356
3470.00,0.0357
3469.00,0.0357
3468.00,0.0357
3467.00,0.0358
3466.00,0.0358
3465.00,0.0359
3464.00,0.0360
3463.00,0.0361
3462.00,0.0361
3461.00,0.0361
3460.00,0.0361
3459.00,0.0361
3458.00,0.0361
3457.00,0.0362
3456.00,0.0363
3455.00,0.0364
3454.00,0.0365
3453.00,0.0365
3452.00,0.0365
3451.00,0.0365
3450.00,0.0366
3449.00,0.0366
3448.00,0.0367
3447.00,0.0367
3446.00,0.0368
3445.00,0.0369
3444.00,0.0369
3443.00,0.0369
3442.00,0.0369
3441.00,0.0369
3440.00,0.0369
3439.00,0.0369
3438.00,0.0369
3437.00,0.0369
3436.00,0.0370
3435.00,0.0370
3434.00,0.0371
3433.00,0.0371
3432.00,0.0372
3431.00,0.0372
3430.00,0.0372
3429.00,0.0372
3428.00,0.0373
3427.00,0.0373
3426.00,0.0374
3425.00,0.0375
3424.00,0.0376
3423.00,0.0376
3422.00,0.0377
3421.00,0.0377
3420.00,0.0377
3419.00,0.0377
3418.00,0.0378
3417.00,0.0378
3416.00,0.0378
3415.00,0.0378
3414.00,0.0379
3413.00,0.0379
3412.00,0.0380
3411.00,0.0380
3410.00,0.0380
3409.00,0.0380
3408.00,0.0380
3407.00,0.0381
3406.00,0.0382
3405.00,0.0382
3404.00,0.0383
3403.00,0.0384
3402.00,0.0384
3401.00,0.0384
3400.00,0.0383
3399.00,0.0383
3398.00,0.0383
3397.00,0.0383
3396.00,0.0384
3395.00,0.0384
3394.00,0.0385
3393.00,0.0385
3392.00,0.0385
3391.00,0.0385
3390.00,0.0385
3389.00,0.0386
3388.00,0.0386
3387.00,0.0386
3386.00,0.0386
3385.00,0.0387
3384.00,0.0387
3383.00,0.0386
3382.00,0.0386
3381.00,0.0386
3380.00,0.0387
3379.00,0.0387
3378.00,0.0388
3377.00,0.0388
3376.00,0.0388
3375.00,0.0388
3374.00,0.0388
3373.00,0.0389
3372.00,0.0389
3371.00,0.0389
3370.00,0.0389
3369.00,0.0389
3368.00,0.0389
3367.00,0.0390
3366.00,0.0390
3365.00,0.0391
3364.00,0.0392
3363.00,0.0392
3362.00,0.0392
3361.00,0.0392
3360.00,0.0392
3359.00,0.0392
3358.00,0.0392
3357.00,0.0392
3356.00,0.0392
3355.00,0.0392
3354.00,0.0391
3353.00,0.0391
3352.00,0.0391
3351.00,0.0391
3350.00,0.0391
3349.00,0.0391
3348.00,0.0391
3347.00,0.0391
3346.00,0.0391
3345.00,0.0391
3344.00,0.0391
3343.00,0.0392
3342.00,0.0392
3341.00,0.0392
3340.00,0.0392
3339.00,0.0392
3338.00,0.0392
3337.00,0.0393
3336.00,0.0393
3335.00,0.0394
3334.00,0.0394
3333.00,0.0393
3332.00,0.0393
3331.00,0.0393
3330.00,0.0393
3329.00,0.0393
3328.00,0.0393
3327.00,0.0393
3326.00,0.0394
3325.00,0.0394
3324.00,0.0395
3323.00,0.0395
3322.00,0.0394
3321.00,0.0394
3320.00,0.0394
3319.00,0.0394
3318.00,0.0394
3317.00,0.0394
3316.00,0.0394
3315.00,0.0394
3314.00,0.0393
3313.00,0.0393
3312.00,0.0393
3311.00,0.0393
3310.00,0.0394
3309.00,0.0394
3308.00,0.0394
3307.00,0.0395
3306.00,0.0395
3305.00,0.0396
3304.00,0.0396
3303.00,0.0396
3302.00,0.0395
3301.00,0.0394
3300.00,0.0394
3299.00,0.0393
3298.00,0.0393
3297.00,0.0393
3296.00,0.0393
3295.00,0.0393
3294.00,0.0393
3293.00,0.0393
3292.00,0.0393
3291.00,0.0393
3290.00,0.0394
3289.00,0.0394
3288.00,0.0394
3287.00,0.0394
3286.00,0.0394
3285.00,0.0394
3284.00,0.0394
3283.00,0.0394
3282.00,0.0394
3281.00,0.0394
3280.00,0.0394
3279.00,0.0394
3278.00,0.0394
3277.00,0.0394
3276.00,0.0394
3275.00,0.0394
3274.00,0.0394
3273.00,0.0394
3272.00,0.0394
3271.00,0.0393
3270.00,0.0393
3269.00,0.0393
3268.00,0.0393
3267.00,0.0393
3266.00,0.0393
3265.00,0.0393
3264.00,0.0393
3263.00,0.0393
3262.00,0.0392
3261.00,0.0392
3260.00,0.0391
3259.00,0.0392
3258.00,0.0392
3257.00,0.0392
3256.00,0.0392
3255.00,0.0392
3254.00,0.0392
3253.00,0.0392
3252.00,0.0392
3251.00,0.0391
3250.00,0.0391
3249.00,0.0391
3248.00,0.0391
3247.00,0.0392
3246.00,0.0392
3245.00,0.0392
3244.00,0.0392
3243.00,0.0391
3242.00,0.0391
3241.00,0.0390
3240.00,0.0390
3239.00,0.0390
3238.00,0.0390
3237.00,0.0390
3236.00,0.0390
3235.00,0.0390
3234.00,0.0390
3233.00,0.0390
3232.00,0.0390
3231.00,0.0390
3230.00,0.0390
3229.00,0.0390
3228.00,0.0390
3227.00,0.0389
3226.00,0.0389
3225.00,0.0388
3224.00,0.0388
3223.00,0.0388
3222.00,0.0388
3221.00,0.0388
3220.00,0.0388
3219.00,0.0387
3218.00,0.0386
3217.00,0.0385
3216.00,0.0385
3215.00,0.0385
3214.00,0.0385
3213.00,0.0385
3212.00,0.0386
3211.00,0.0386
3210.00,0.0386
3209.00,0.0386
3208.00,0.0385
3207.00,0.0385
3206.00,0.0384
3205.00,0.0384
3204.00,0.0384
3203.00,0.0384
3202.00,0.0383
3201.00,0.0383
3200.00,0.0383
3199.00,0.0383
3198.00,0.0383
3197.00,0.0383
3196.00,0.0382
3195.00,0.0382
3194.00,0.0382
3193.00,0.0381
3192.00,0.0381
3191.00,0.0381
3190.00,0.0380
3189.00,0.0380
3188.00,0.0380
3187.00,0.0380
3186.00,0.0379
3185.00,0.0379
3184.00,0.0379
3183.00,0.0379
3182.00,0.0379
3181.00,0.0379
3180.00,0.0378
3179.00,0.0377
3178.00,0.0376
3177.00,0.0376
3176.00,0.0376
3175.00,0.0376
3174.00,0.0376
3173.00,0.0376
3172.00,0.0375
3171.00,0.0375
3170.00,0.0374
3169.00,0.0374
3168.00,0.0373
3167.00,0.0373
3166.00,0.0373
3165.00,0.0373
3164.00,0.0373
3163.00,0.0372
3162.00,0.0372
3161.00,0.0371
3160.00,0.0371
3159.00,0.0371
3158.00,0.0371
3157.00,0.0371
3156.00,0.0370
3155.00,0.0369
3154.00,0.0369
3153.00,0.0368
3152.00,0.0368
3151.00,0.0368
3150.00,0.0367
3149.00,0.0367
3148.00,0.0367
3147.00,0.0367
3146.00,0.0367
3145.00,0.0367
3144.00,0.0366
3143.00,0.0366
3142.00,0.0366
3141.00,0.0365
3140.00,0.0365
3139.00,0.0365
3138.00,0.0364
3137.00,0.0364
3136.00,0.0364
3135.00,0.0364
3134.00,0.0363
3133.00,0.0362
3132.00,0.0362
3131.00,0.0362
3130.00,0.0362
3129.00,0.0362
3128.00,0.0361
3127.00,0.0361
3126.00,0.0361
3125.00,0.0360
3124.00,0.0360
3123.00,0.0360
3122.00,0.0359
3121.00,0.0359
3120.00,0.0359
3119.00,0.0359
3118.00,0.0359
3117.00,0.0358
3116.00,0.0358
3115.00,0.0358
3114.00,0.0358
3113.00,0.0358
3112.00,0.0358
3111.00,0.0357
3110.00,0.0356
3109.00,0.0356
3108.00,0.0356
3107.00,0.0356
3106.00,0.0356
3105.00,0.0355
3104.00,0.0355
3103.00,0.0355
3102.00,0.0355
3101.00,0.0354
3100.00,0.0354
3099.00,0.0354
3098.00,0.0355
3097.00,0.0355
3096.00,0.0355
3095.00,0.0354
3094.00,0.0354
3093.00,0.0353
3092.00,0.0353
3091.00,0.0352
3090.00,0.0352
3089.00,0.0352
3088.00,0.0351
3087.00,0.0351
3086.00,0.0351
3085.00,0.0350
3084.00,0.0350
3083.00,0.0349
3082.00,0.0349
3081.00,0.0349
3080.00,0.0349
3079.00,0.0349
3078.00,0.0349
3077.00,0.0349
3076.00,0.0349
3075.00,0.0349
3074.00,0.0348
3073.00,0.0348
3072.00,0.0348
3071.00,0.0348
3070.00,0.0348
3069.00,0.0347
3068.00,0.0347
3067.00,0.0346
3066.00,0.0346
3065.00,0.0346
3064.00,0.0346
3063.00,0.0346
3062.00,0.0346
3061.00,0.0345
3060.00,0.0345
3059.00,0.0344
3058.00,0.0344
3057.00,0.0344
3056.00,0.0344
3055.00,0.0344
3054.00,0.0344
3053.00,0.0344
3052.00,0.0343
3051.00,0.0343
3050.00,0.0342
3049.00,0.0341
3048.00,0.0340
3047.00,0.0340
3046.00,0.0340
3045.00,0.0340
3044.00,0.0340
3043.00,0.0340
3042.00,0.0339
3041.00,0.0339
3040.00,0.0338
3039.00,0.0338
3038.00,0.0338
3037.00,0.0338
3036.00,0.0338
3035.00,0.0337
3034.00,0.0337
3033.00,0.0337
3032.00,0.0337
3031.00,0.0337
3030.00,0.0337
3029.00,0.0336
3028.00,0.0335
3027.00,0.0334
3026.00,0.0333
3025.00,0.0332
3024.00,0.0332
3023.00,0.0332
3022.00,0.0332
3021.00,0.0332
3020.00,0.0332
3019.00,0.0331
3018.00,0.0331
3017.00,0.0331
3016.00,0.0331
3015.00,0.0331
3014.00,0.0331
3013.00,0.0331
3012.00,0.0330
3011.00,0.0330
3010.00,0.0330
3009.00,0.0329
3008.00,0.0328
3007.00,0.0327
3006.00,0.0327
3005.00,0.0326
3004.00,0.0325
3003.00,0.0325
3002.00,0.0324
3001.00,0.0323
3000.00,0.0323
2999.00,0.0322
2998.00,0.0322
2997.00,0.0322
2996.00,0.0321
2995.00,0.0322
2994.00,0.0322
2993.00,0.0322
2992.00,0.0321
2991.00,0.0320
2990.00,0.0319
2989.00,0.0319
2988.00,0.0319
2987.00,0.0318
2986.00,0.0318
2985.00,0.0317
2984.00,0.0316
2983.00,0.0315
2982.00,0.0314
2981.00,0.0314
2980.00,0.0314
2979.00,0.0314
2978.00,0.0315
2977.00,0.0316
2976.00,0.0316
2975.00,0.0316
2974.00,0.0316
2973.00,0.0316
2972.00,0.0315
2971.00,0.0315
2970.00,0.0315
2969.00,0.0315
2968.00,0.0315
2967.00,0.0315
2966.00,0.0315
2965.00,0.0316
2964.00,0.0316
2963.00,0.0316
2962.00,0.0316
2961.00,0.0316
2960.00,0.0316
2959.00,0.0316
2958.00,0.0316
2957.00,0.0317
2956.00,0.0317
2955.00,0.0317
2954.00,0.0318
2953.00,0.0319
2952.00,0.0320
2951.00,0.0321
2950.00,0.0321
2949.00,0.0321
2948.00,0.0322
2947.00,0.0322
2946.00,0.0323
2945.00,0.0324
2944.00,0.0325
2943.00,0.0326
2942.00,0.0326
2941.00,0.0326
2940.00,0.0326
2939.00,0.0326
2938.00,0.0326
2937.00,0.0326
2936.00,0.0326
2935.00,0.0326
2934.00,0.0326
2933.00,0.0326
2932.00,0.0326
2931.00,0.0325
2930.00,0.0325
2929.00,0.0324
2928.00,0.0324
2927.00,0.0323
2926.00,0.0323
2925.00,0.0322
2924.00,0.0322
2923.00,0.0322
2922.00,0.0321
2921.00,0.0321
2920.00,0.0320
2919.00,0.0318
2918.00,0.0317
2917.00,0.0316
2916.00,0.0315
2915.00,0.0316
2914.00,0.0317
2913.00,0.0318
2912.00,0.0318
2911.00,0.0318
2910.00,0.0319
2909.00,0.0319
2908.00,0.0319
2907.00,0.0319
2906.00,0.0318
2905.00,0.0318
2904.00,0.0318
2903.00,0.0317
2902.00,0.0317
2901.00,0.0317
2900.00,0.0317
2899.00,0.0317
2898.00,0.0316
2897.00,0.0315
2896.00,0.0315
2895.00,0.0314
2894.00,0.0314
2893.00,0.0314
2892.00,0.0315
2891.00,0.0314
2890.00,0.0314
2889.00,0.0314
2888.00,0.0313
2887.00,0.0313
2886.00,0.0313
2885.00,0.0313
2884.00,0.0313
2883.00,0.0314
2882.00,0.0314
2881.00,0.0314
2880.00,0.0313
2879.00,0.0313
2878.00,0.0312
2877.00,0.0312
2876.00,0.0311
2875.00,0.0311
2874.00,0.0310
2873.00,0.0309
2872.00,0.0309
2871.00,0.0309
2870.00,0.0308
2869.00,0.0308
2868.00,0.0308
2867.00,0.0308
2866.00,0.0309
2865.00,0.0309
2864.00,0.0309
2863.00,0.0309
2862.00,0.0310
2861.00,0.0310
2860.00,0.0310
2859.00,0.0310
2858.00,0.0310
2857.00,0.0310
2856.00,0.0310
2855.00,0.0309
2854.00,0.0309
2853.00,0.0309
2852.00,0.0308
2851.00,0.0307
2850.00,0.0306
2849.00,0.0305
2848.00,0.0305
2847.00,0.0304
2846.00,0.0304
2845.00,0.0304
2844.00,0.0304
2843.00,0.0303
2842.00,0.0303
2841.00,0.0303
2840.00,0.0303
2839.00,0.0303
2838.00,0.0303
2837.00,0.0302
2836.00,0.0302
2835.00,0.0301
2834.00,0.0301
2833.00,0.0301
2832.00,0.0300
2831.00,0.0300
2830.00,0.0300
2829.00,0.0300
2828.00,0.0300
2827.00,0.0300
2826.00,0.0300
2825.00,0.0299
2824.00,0.0299
2823.00,0.0298
2822.00,0.0298
2821.00,0.0298
2820.00,0.0298
2819.00,0.0298
2818.00,0.0298
2817.00,0.0297
2816.00,0.0297
2815.00,0.0297
2814.00,0.0296
2813.00,0.0296
2812.00,0.0295
2811.00,0.0295
2810.00,0.0295
2809.00,0.0295
2808.00,0.0294
2807.00,0.0294
2806.00,0.0294
2805.00,0.0294
2804.00,0.0294
2803.00,0.0294
2802.00,0.0294
2801.00,0.0294
2800.00,0.0293
2799.00,0.0293
2798.00,0.0293
2797.00,0.0293
2796.00,0.0292
2795.00,0.0292
2794.00,0.0291
2793.00,0.0291
2792.00,0.0291
2791.00,0.0291
2790.00,0.0291
2789.00,0.0291
2788.00,0.0291
2787.00,0.0291
2786.00,0.0291
2785.00,0.0291
2784.00,0.0290
2783.00,0.0290
2782.00,0.0290
2781.00,0.0290
2780.00,0.0290
2779.00,0.0289
2778.00,0.0289
2777.00,0.0289
2776.00,0.0290
2775.00,0.0290
2774.00,0.0289
2773.00,0.0289
2772.00,0.0288
2771.00,0.0288
2770.00,0.0288
2769.00,0.0288
2768.00,0.0287
2767.00,0.0287
2766.00,0.0287
2765.00,0.0287
2764.00,0.0288
2763.00,0.0288
2762.00,0.0288
2761.00,0.0287
2760.00,0.0287
2759.00,0.0287
2758.00,0.0287
2757.00,0.0287
2756.00,0.0287
2755.00,0.0287
2754.00,0.0287
