Created as New Dataset,
cm-1,A
4000.00,0.0145
3999.00,0.0145
3998.00,0.0144
3997.00,0.0144
3996.00,0.0144
3995.00,0.0146
3994.00,0.0147
3993.00,0.0147
3992.00,0.0147
3991.00,0.0146
3990.00,0.0146
3989.00,0.0145
3988.00,0.0145
3987.00,0.0145
3986.00,0.0145
3985.00,0.0146
3984.00,0.0146
3983.00,0.0146
3982.00,0.0146
3981.00,0.0146
3980.00,0.0146
3979.00,0.0146
3978.00,0.0146
3977.00,0.0146
3976.00,0.0146
3975.00,0.0146
3974.00,0.0147
3973.00,0.0147
3972.00,0.0147
3971.00,0.0147
3970.00,0.0146
3969.00,0.0146
3968.00,0.0145
3967.00,0.0145
3966.00,0.0145
3965.00,0.0145
3964.00,0.0146
3963.00,0.0146
3962.00,0.0146
3961.00,0.0147
3960.00,0.0147
3959.00,0.0147
3958.00,0.0147
3957.00,0.0147
3956.00,0.0146
3955.00,0.0146
3954.00,0.0147
3953.00,0.0147
3952.00,0.0147
3951.00,0.0147
3950.00,0.0147
3949.00,0.0147
3948.00,0.0148
3947.00,0.0148
3946.00,0.0149
3945.00,0.0150
3944.00,0.0150
3943.00,0.0150
3942.00,0.0149
3941.00,0.0148
3940.00,0.0148
3939.00,0.0148
3938.00,0.0147
3937.00,0.0147
3936.00,0.0147
3935.00,0.0147
3934.00,0.0148
3933.00,0.0148
3932.00,0.0149
3931.00,0.0149
3930.00,0.0150
3929.00,0.0150
3928.00,0.0150
3927.00,0.0151
3926.00,0.0150
3925.00,0.0150
3924.00,0.0149
3923.00,0.0149
3922.00,0.0149
3921.00,0.0149
3920.00,0.0148
3919.00,0.0148
3918.00,0.0148
3917.00,0.0148
3916.00,0.0148
3915.00,0.0148
3914.00,0.0147
3913.00,0.0147
3912.00,0.0147
3911.00,0.0146
3910.00,0.0146
3909.00,0.0147
3908.00,0.0148
3907.00,0.0149
3906.00,0.0149
3905.00,0.0149
3904.00,0.0149
3903.00,0.0151
3902.00,0.0153
3901.00,0.0155
3900.00,0.0155
3899.00,0.0153
3898.00,0.0151
3897.00,0.0150
3896.00,0.0150
3895.00,0.0150
3894.00,0.0150
3893.00,0.0149
3892.00,0.0148
3891.00,0.0147
3890.00,0.0146
3889.00,0.0148
3888.00,0.0151
3887.00,0.0151
3886.00,0.0149
3885.00,0.0149
3884.00,0.0151
3883.00,0.0155
3882.00,0.0157
3881.00,0.0156
3880.00,0.0152
3879.00,0.0150
3878.00,0.0151
3877.00,0.0153
3876.00,0.0153
3875.00,0.0151
3874.00,0.0149
3873.00,0.0149
3872.00,0.0151
3871.00,0.0152
3870.00,0.0150
3869.00,0.0148
3868.00,0.0149
3867.00,0.0152
3866.00,0.0152
3865.00,0.0150
3864.00,0.0149
3863.00,0.0150
3862.00,0.0150
3861.00,0.0150
3860.00,0.0149
3859.00,0.0148
3858.00,0.0147
3857.00,0.0148
3856.00,0.0150
3855.00,0.0150
3854.00,0.0149
3853.00,0.0148
3852.00,0.0149
3851.00,0.0151
3850.00,0.0151
3849.00,0.0149
3848.00,0.0147
3847.00,0.0146
3846.00,0.0146
3845.00,0.0146
3844.00,0.0146
3843.00,0.0146
3842.00,0.0147
3841.00,0.0149
3840.00,0.0150
3839.00,0.0150
3838.00,0.0150
3837.00,0.0150
3836.00,0.0151
3835.00,0.0151
3834.00,0.0151
3833.00,0.0150
3832.00,0.0149
3831.00,0.0148
3830.00,0.0148
3829.00,0.0149
3828.00,0.0149
3827.00,0.0147
3826.00,0.0145
3825.00,0.0145
3824.00,0.0147
3823.00,0.0149
3822.00,0.0148
3821.00,0.0145
3820.00,0.0145
3819.00,0.0148
3818.00,0.0152
3817.00,0.0152
3816.00,0.0148
3815.00,0.0146
3814.00,0.0146
3813.00,0.0147
3812.00,0.0147
3811.00,0.0145
3810.00,0.0144
3809.00,0.0144
3808.00,0.0144
3807.00,0.0142
3806.00,0.0141
3805.00,0.0143
3804.00,0.0147
3803.00,0.0149
3802.00,0.0147
3801.00,0.0145
3800.00,0.0147
3799.00,0.0149
3798.00,0.0150
3797.00,0.0148
3796.00,0.0146
3795.00,0.0146
3794.00,0.0147
3793.00,0.0147
3792.00,0.0147
3791.00,0.0146
3790.00,0.0145
3789.00,0.0145
3788.00,0.0145
3787.00,0.0145
3786.00,0.0145
3785.00,0.0144
3784.00,0.0144
3783.00,0.0145
3782.00,0.0147
3781.00,0.0147
3780.00,0.0146
3779.00,0.0145
3778.00,0.0145
3777.00,0.0145
3776.00,0.0146
3775.00,0.0145
3774.00,0.0143
3773.00,0.0143
3772.00,0.0143
3771.00,0.0143
3770.00,0.0142
3769.00,0.0143
3768.00,0.0145
3767.00,0.0146
3766.00,0.0146
3765.00,0.0145
3764.00,0.0145
3763.00,0.0146
3762.00,0.0148
3761.00,0.0148
3760.00,0.0147
3759.00,0.0146
3758.00,0.0145
3757.00,0.0145
3756.00,0.0144
3755.00,0.0144
3754.00,0.0143
3753.00,0.0140
3752.00,0.0137
3751.00,0.0137
3750.00,0.0139
3749.00,0.0142
3748.00,0.0144
3747.00,0.0149
3746.00,0.0151
3745.00,0.0149
3744.00,0.0146
3743.00,0.0144
3742.00,0.0145
3741.00,0.0145
3740.00,0.0143
3739.00,0.0142
3738.00,0.0141
3737.00,0.0142
3736.00,0.0143
3735.00,0.0145
3734.00,0.0147
3733.00,0.0147
3732.00,0.0145
3731.00,0.0143
3730.00,0.0142
3729.00,0.0142
3728.00,0.0142
3727.00,0.0142
3726.00,0.0142
3725.00,0.0143
3724.00,0.0145
3723.00,0.0146
3722.00,0.0146
3721.00,0.0146
3720.00,0.0145
3719.00,0.0145
3718.00,0.0143
3717.00,0.0142
3716.00,0.0142
3715.00,0.0142
3714.00,0.0142
3713.00,0.0141
3712.00,0.0141
3711.00,0.0143
3710.00,0.0146
3709.00,0.0146
3708.00,0.0146
3707.00,0.0145
3706.00,0.0144
3705.00,0.0144
3704.00,0.0145
3703.00,0.0146
3702.00,0.0146
3701.00,0.0146
3700.00,0.0146
3699.00,0.0146
3698.00,0.0146
3697.00,0.0146
3696.00,0.0145
3695.00,0.0144
3694.00,0.0145
3693.00,0.0145
3692.00,0.0145
3691.00,0.0146
3690.00,0.0147
3689.00,0.0148
3688.00,0.0148
3687.00,0.0148
3686.00,0.0148
3685.00,0.0147
3684.00,0.0146
3683.00,0.0144
3682.00,0.0143
3681.00,0.0142
3680.00,0.0141
3679.00,0.0141
3678.00,0.0144
3677.00,0.0147
3676.00,0.0149
3675.00,0.0148
3674.00,0.0149
3673.00,0.0151
3672.00,0.0152
3671.00,0.0150
3670.00,0.0147
3669.00,0.0147
3668.00,0.0149
3667.00,0.0150
3666.00,0.0149
3665.00,0.0147
3664.00,0.0146
3663.00,0.0145
3662.00,0.0145
3661.00,0.0145
3660.00,0.0146
3659.00,0.0147
3658.00,0.0148
3657.00,0.0149
3656.00,0.0149
3655.00,0.0150
3654.00,0.0153
3653.00,0.0156
3652.00,0.0156
3651.00,0.0154
3650.00,0.0153
3649.00,0.0158
3648.00,0.0164
3647.00,0.0165
3646.00,0.0164
3645.00,0.0163
3644.00,0.0161
3643.00,0.0160
3642.00,0.0158
3641.00,0.0157
3640.00,0.0157
3639.00,0.0157
3638.00,0.0157
3637.00,0.0157
3636.00,0.0158
3635.00,0.0158
3634.00,0.0157
3633.00,0.0156
3632.00,0.0158
3631.00,0.0161
3630.00,0.0163
3629.00,0.0164
3628.00,0.0166
3627.00,0.0168
3626.00,0.0169
3625.00,0.0168
3624.00,0.0167
3623.00,0.0166
3622.00,0.0168
3621.00,0.0170
3620.00,0.0172
3619.00,0.0174
3618.00,0.0175
3617.00,0.0175
3616.00,0.0175
3615.00,0.0174
3614.00,0.0172
3613.00,0.0170
3612.00,0.0170
3611.00,0.0170
3610.00,0.0171
3609.00,0.0172
3608.00,0.0172
3607.00,0.0173
3606.00,0.0173
3605.00,0.0173
3604.00,0.0173
3603.00,0.0172
3602.00,0.0172
3601.00,0.0172
3600.00,0.0173
3599.00,0.0174
3598.00,0.0175
3597.00,0.0176
3596.00,0.0176
3595.00,0.0177
3594.00,0.0177
3593.00,0.0177
3592.00,0.0176
3591.00,0.0177
3590.00,0.0178
3589.00,0.0180
3588.00,0.0182
3587.00,0.0184
3586.00,0.0185
3585.00,0.0185
3584.00,0.0184
3583.00,0.0182
3582.00,0.0181
3581.00,0.0181
3580.00,0.0181
3579.00,0.0182
3578.00,0.0182
3577.00,0.0182
3576.00,0.0181
3575.00,0.0181
3574.00,0.0180
3573.00,0.0180
3572.00,0.0180
3571.00,0.0182
3570.00,0.0184
3569.00,0.0186
3568.00,0.0188
3567.00,0.0191
3566.00,0.0193
3565.00,0.0194
3564.00,0.0193
3563.00,0.0191
3562.00,0.0189
3561.00,0.0188
3560.00,0.0187
3559.00,0.0187
3558.00,0.0187
3557.00,0.0187
3556.00,0.0187
3555.00,0.0187
3554.00,0.0187
3553.00,0.0188
3552.00,0.0189
3551.00,0.0190
3550.00,0.0190
3549.00,0.0190
3548.00,0.0191
3547.00,0.0192
3546.00,0.0193
3545.00,0.0194
3544.00,0.0194
3543.00,0.0194
3542.00,0.0193
3541.00,0.0193
3540.00,0.0192
3539.00,0.0192
3538.00,0.0193
3537.00,0.0193
3536.00,0.0193
3535.00,0.0193
3534.00,0.0193
3533.00,0.0193
3532.00,0.0193
3531.00,0.0193
3530.00,0.0193
3529.00,0.0194
3528.00,0.0195
3527.00,0.0196
3526.00,0.0196
3525.00,0.0197
3524.00,0.0197
3523.00,0.0198
3522.00,0.0198
3521.00,0.0198
3520.00,0.0198
3519.00,0.0197
3518.00,0.0197
3517.00,0.0198
3516.00,0.0198
3515.00,0.0198
3514.00,0.0199
3513.00,0.0199
3512.00,0.0200
3511.00,0.0201
3510.00,0.0201
3509.00,0.0202
3508.00,0.0202
3507.00,0.0202
3506.00,0.0201
3505.00,0.0201
3504.00,0.0201
3503.00,0.0202
3502.00,0.0203
3501.00,0.0204
3500.00,0.0204
3499.00,0.0204
3498.00,0.0204
3497.00,0.0203
3496.00,0.0204
3495.00,0.0204
3494.00,0.0205
3493.00,0.0205
3492.00,0.0205
3491.00,0.0205
3490.00,0.0204
3489.00,0.0204
3488.00,0.0203
3487.00,0.0204
3486.00,0.0204
3485.00,0.0205
3484.00,0.0206
3483.00,0.0206
3482.00,0.0207
3481.00,0.0208
3480.00,0.0208
3479.00,0.0209
3478.00,0.0209
3477.00,0.0209
3476.00,0.0208
3475.00,0.0208
3474.00,0.0208
3473.00,0.0209
3472.00,0.0210
3471.00,0.0210
3470.00,0.0211
3469.00,0.0210
3468.00,0.0210
3467.00,0.0210
3466.00,0.0210
3465.00,0.0211
3464.00,0.0211
3463.00,0.0211
3462.00,0.0211
3461.00,0.0211
3460.00,0.0211
3459.00,0.0211
3458.00,0.0211
3457.00,0.0211
3456.00,0.0212
3455.00,0.0213
3454.00,0.0214
3453.00,0.0215
3452.00,0.0215
3451.00,0.0215
3450.00,0.0215
3449.00,0.0215
3448.00,0.0215
3447.00,0.0215
3446.00,0.0216
3445.00,0.0216
3444.00,0.0217
3443.00,0.0217
3442.00,0.0217
3441.00,0.0217
3440.00,0.0217
3439.00,0.0217
3438.00,0.0217
3437.00,0.0216
3436.00,0.0216
3435.00,0.0217
3434.00,0.0217
3433.00,0.0217
3432.00,0.0217
3431.00,0.0218
3430.00,0.0218
3429.00,0.0218
3428.00,0.0218
3427.00,0.0218
3426.00,0.0218
3425.00,0.0218
3424.00,0.0218
3423.00,0.0219
3422.00,0.0219
3421.00,0.0219
3420.00,0.0219
3419.00,0.0220
3418.00,0.0220
3417.00,0.0221
3416.00,0.0221
3415.00,0.0221
3414.00,0.0221
3413.00,0.0222
3412.00,0.0222
3411.00,0.0222
3410.00,0.0222
3409.00,0.0222
3408.00,0.0222
3407.00,0.0222
3406.00,0.0222
3405.00,0.0223
3404.00,0.0224
3403.00,0.0224
3402.00,0.0224
3401.00,0.0224
3400.00,0.0223
3399.00,0.0223
3398.00,0.0223
3397.00,0.0223
3396.00,0.0223
3395.00,0.0224
3394.00,0.0225
3393.00,0.0225
3392.00,0.0225
3391.00,0.0225
3390.00,0.0225
3389.00,0.0225
3388.00,0.0225
3387.00,0.0225
3386.00,0.0226
3385.00,0.0226
3384.00,0.0226
3383.00,0.0226
3382.00,0.0225
3381.00,0.0224
3380.00,0.0224
3379.00,0.0225
3378.00,0.0225
3377.00,0.0226
3376.00,0.0226
3375.00,0.0226
3374.00,0.0227
3373.00,0.0228
3372.00,0.0228
3371.00,0.0228
3370.00,0.0228
3369.00,0.0228
3368.00,0.0228
3367.00,0.0228
3366.00,0.0228
3365.00,0.0228
3364.00,0.0229
3363.00,0.0229
3362.00,0.0230
3361.00,0.0230
3360.00,0.0230
3359.00,0.0230
3358.00,0.0230
3357.00,0.0230
3356.00,0.0230
3355.00,0.0230
3354.00,0.0229
3353.00,0.0229
3352.00,0.0229
3351.00,0.0229
3350.00,0.0229
3349.00,0.0229
3348.00,0.0229
3347.00,0.0229
3346.00,0.0230
3345.00,0.0230
3344.00,0.0231
3343.00,0.0231
3342.00,0.0231
3341.00,0.0231
3340.00,0.0231
3339.00,0.0231
3338.00,0.0231
3337.00,0.0231
3336.00,0.0232
3335.00,0.0232
3334.00,0.0233
3333.00,0.0233
3332.00,0.0233
3331.00,0.0232
3330.00,0.0232
3329.00,0.0232
3328.00,0.0233
3327.00,0.0233
3326.00,0.0233
3325.00,0.0233
3324.00,0.0234
3323.00,0.0234
3322.00,0.0233
3321.00,0.0233
3320.00,0.0232
3319.00,0.0232
3318.00,0.0232
3317.00,0.0233
3316.00,0.0233
3315.00,0.0233
3314.00,0.0232
3313.00,0.0232
3312.00,0.0232
3311.00,0.0233
3310.00,0.0233
3309.00,0.0234
3308.00,0.0234
3307.00,0.0235
3306.00,0.0235
3305.00,0.0236
3304.00,0.0236
3303.00,0.0236
3302.00,0.0236
3301.00,0.0235
3300.00,0.0235
3299.00,0.0234
3298.00,0.0234
3297.00,0.0235
3296.00,0.0235
3295.00,0.0235
3294.00,0.0235
3293.00,0.0235
3292.00,0.0235
3291.00,0.0235
3290.00,0.0235
3289.00,0.0235
3288.00,0.0235
3287.00,0.0235
3286.00,0.0235
3285.00,0.0236
3284.00,0.0236
3283.00,0.0235
3282.00,0.0235
3281.00,0.0235
3280.00,0.0235
3279.00,0.0235
3278.00,0.0235
3277.00,0.0235
3276.00,0.0235
3275.00,0.0235
3274.00,0.0236
3273.00,0.0236
3272.00,0.0236
3271.00,0.0236
3270.00,0.0236
3269.00,0.0236
3268.00,0.0236
3267.00,0.0236
3266.00,0.0237
3265.00,0.0237
3264.00,0.0237
3263.00,0.0237
3262.00,0.0237
3261.00,0.0236
3260.00,0.0236
3259.00,0.0236
3258.00,0.0236
3257.00,0.0236
3256.00,0.0236
3255.00,0.0236
3254.00,0.0236
3253.00,0.0236
3252.00,0.0236
3251.00,0.0236
3250.00,0.0235
3249.00,0.0236
3248.00,0.0236
3247.00,0.0237
3246.00,0.0237
3245.00,0.0237
3244.00,0.0237
3243.00,0.0237
3242.00,0.0237
3241.00,0.0237
3240.00,0.0237
3239.00,0.0237
3238.00,0.0237
3237.00,0.0237
3236.00,0.0237
3235.00,0.0237
3234.00,0.0237
3233.00,0.0238
3232.00,0.0239
3231.00,0.0239
3230.00,0.0239
3229.00,0.0239
3228.00,0.0239
3227.00,0.0239
3226.00,0.0239
3225.00,0.0239
3224.00,0.0238
3223.00,0.0238
3222.00,0.0238
3221.00,0.0238
3220.00,0.0238
3219.00,0.0238
3218.00,0.0238
3217.00,0.0237
3216.00,0.0237
3215.00,0.0237
3214.00,0.0237
3213.00,0.0237
3212.00,0.0237
3211.00,0.0238
3210.00,0.0238
3209.00,0.0238
3208.00,0.0238
3207.00,0.0238
3206.00,0.0238
3205.00,0.0238
3204.00,0.0238
3203.00,0.0238
3202.00,0.0238
3201.00,0.0238
3200.00,0.0238
3199.00,0.0238
3198.00,0.0238
3197.00,0.0238
3196.00,0.0238
3195.00,0.0237
3194.00,0.0237
3193.00,0.0237
3192.00,0.0237
3191.00,0.0237
3190.00,0.0237
3189.00,0.0237
3188.00,0.0237
3187.00,0.0237
3186.00,0.0237
3185.00,0.0237
3184.00,0.0237
3183.00,0.0237
3182.00,0.0237
3181.00,0.0237
3180.00,0.0237
3179.00,0.0236
3178.00,0.0236
3177.00,0.0236
3176.00,0.0236
3175.00,0.0236
3174.00,0.0236
3173.00,0.0236
3172.00,0.0236
3171.00,0.0236
3170.00,0.0236
3169.00,0.0236
3168.00,0.0236
3167.00,0.0235
3166.00,0.0235
3165.00,0.0235
3164.00,0.0235
3163.00,0.0235
3162.00,0.0235
3161.00,0.0235
3160.00,0.0235
3159.00,0.0235
3158.00,0.0235
3157.00,0.0235
3156.00,0.0235
3155.00,0.0234
3154.00,0.0234
3153.00,0.0234
3152.00,0.0234
3151.00,0.0234
3150.00,0.0233
3149.00,0.0233
3148.00,0.0233
3147.00,0.0234
3146.00,0.0234
3145.00,0.0234
3144.00,0.0234
3143.00,0.0234
3142.00,0.0234
3141.00,0.0234
3140.00,0.0234
3139.00,0.0233
3138.00,0.0233
3137.00,0.0232
3136.00,0.0232
3135.00,0.0232
3134.00,0.0231
3133.00,0.0231
3132.00,0.0231
3131.00,0.0232
3130.00,0.0232
3129.00,0.0232
3128.00,0.0232
3127.00,0.0232
3126.00,0.0231
3125.00,0.0231
3124.00,0.0231
3123.00,0.0231
3122.00,0.0231
3121.00,0.0231
3120.00,0.0231
3119.00,0.0230
3118.00,0.0230
3117.00,0.0230
3116.00,0.0230
3115.00,0.0230
3114.00,0.0230
3113.00,0.0230
3112.00,0.0230
3111.00,0.0230
3110.00,0.0230
3109.00,0.0229
3108.00,0.0229
3107.00,0.0229
3106.00,0.0229
3105.00,0.0229
3104.00,0.0230
3103.00,0.0229
3102.00,0.0229
3101.00,0.0229
3100.00,0.0229
3099.00,0.0230
3098.00,0.0230
3097.00,0.0230
3096.00,0.0229
3095.00,0.0229
3094.00,0.0229
3093.00,0.0229
3092.00,0.0229
3091.00,0.0228
3090.00,0.0228
3089.00,0.0228
3088.00,0.0228
3087.00,0.0228
3086.00,0.0228
3085.00,0.0228
3084.00,0.0228
3083.00,0.0227
3082.00,0.0227
3081.00,0.0227
3080.00,0.0227
3079.00,0.0227
3078.00,0.0227
3077.00,0.0227
3076.00,0.0227
3075.00,0.0226
3074.00,0.0226
3073.00,0.0227
3072.00,0.0227
3071.00,0.0227
3070.00,0.0227
3069.00,0.0226
3068.00,0.0226
3067.00,0.0226
3066.00,0.0226
3065.00,0.0227
3064.00,0.0227
3063.00,0.0227
3062.00,0.0226
3061.00,0.0226
3060.00,0.0225
3059.00,0.0225
3058.00,0.0225
3057.00,0.0225
3056.00,0.0226
3055.00,0.0226
3054.00,0.0226
3053.00,0.0226
3052.00,0.0225
3051.00,0.0224
3050.00,0.0224
3049.00,0.0223
3048.00,0.0223
3047.00,0.0223
3046.00,0.0223
3045.00,0.0223
3044.00,0.0223
3043.00,0.0223
3042.00,0.0223
3041.00,0.0223
3040.00,0.0223
3039.00,0.0223
3038.00,0.0223
3037.00,0.0222
3036.00,0.0222
3035.00,0.0221
3034.00,0.0221
3033.00,0.0221
3032.00,0.0221
3031.00,0.0221
3030.00,0.0221
3029.00,0.0221
3028.00,0.0220
3027.00,0.0220
3026.00,0.0219
3025.00,0.0219
3024.00,0.0218
3023.00,0.0218
3022.00,0.0219
3021.00,0.0219
3020.00,0.0219
3019.00,0.0218
3018.00,0.0218
3017.00,0.0218
3016.00,0.0217
3015.00,0.0218
3014.00,0.0218
3013.00,0.0218
3012.00,0.0218
3011.00,0.0217
3010.00,0.0217
3009.00,0.0216
3008.00,0.0215
3007.00,0.0214
3006.00,0.0214
3005.00,0.0213
3004.00,0.0213
3003.00,0.0212
3002.00,0.0212
3001.00,0.0211
3000.00,0.0211
2999.00,0.0210
2998.00,0.0210
2997.00,0.0209
2996.00,0.0209
2995.00,0.0209
2994.00,0.0208
2993.00,0.0208
2992.00,0.0207
2991.00,0.0207
2990.00,0.0206
2989.00,0.0205
2988.00,0.0205
2987.00,0.0205
2986.00,0.0204
2985.00,0.0204
2984.00,0.0202
2983.00,0.0201
2982.00,0.0199
2981.00,0.0199
2980.00,0.0199
2979.00,0.0200
2978.00,0.0201
2977.00,0.0201
2976.00,0.0201
2975.00,0.0201
2974.00,0.0200
2973.00,0.0200
2972.00,0.0199
2971.00,0.0198
2970.00,0.0198
2969.00,0.0198
2968.00,0.0197
2967.00,0.0197
2966.00,0.0197
2965.00,0.0197
2964.00,0.0197
2963.00,0.0196
2962.00,0.0196
2961.00,0.0196
2960.00,0.0196
2959.00,0.0196
2958.00,0.0196
2957.00,0.0195
2956.00,0.0195
2955.00,0.0195
2954.00,0.0196
2953.00,0.0196
2952.00,0.0197
2951.00,0.0197
2950.00,0.0197
2949.00,0.0197
2948.00,0.0197
2947.00,0.0197
2946.00,0.0197
2945.00,0.0198
2944.00,0.0198
2943.00,0.0198
2942.00,0.0197
2941.00,0.0197
2940.00,0.0196
2939.00,0.0195
2938.00,0.0195
2937.00,0.0194
2936.00,0.0193
2935.00,0.0192
2934.00,0.0191
2933.00,0.0190
2932.00,0.0189
2931.00,0.0188
2930.00,0.0187
2929.00,0.0186
2928.00,0.0185
2927.00,0.0184
2926.00,0.0183
2925.00,0.0182
2924.00,0.0181
2923.00,0.0181
2922.00,0.0180
2921.00,0.0180
2920.00,0.0179
2919.00,0.0178
2918.00,0.0177
2917.00,0.0176
2916.00,0.0177
2915.00,0.0180
2914.00,0.0182
2913.00,0.0185
2912.00,0.0187
2911.00,0.0188
2910.00,0.0189
2909.00,0.0190
2908.00,0.0191
2907.00,0.0192
2906.00,0.0193
2905.00,0.0193
2904.00,0.0193
2903.00,0.0193
2902.00,0.0193
2901.00,0.0194
2900.00,0.0194
2899.00,0.0194
2898.00,0.0194
2897.00,0.0193
2896.00,0.0194
2895.00,0.0194
2894.00,0.0194
2893.00,0.0194
2892.00,0.0194
2891.00,0.0194
2890.00,0.0195
2889.00,0.0195
2888.00,0.0195
2887.00,0.0195
2886.00,0.0195
2885.00,0.0195
2884.00,0.0195
2883.00,0.0195
2882.00,0.0196
2881.00,0.0196
2880.00,0.0196
2879.00,0.0195
2878.00,0.0195
2877.00,0.0195
2876.00,0.0194
2875.00,0.0193
2874.00,0.0193
2873.00,0.0192
2872.00,0.0192
2871.00,0.0192
2870.00,0.0192
2869.00,0.0192
2868.00,0.0192
2867.00,0.0192
2866.00,0.0191
2865.00,0.0191
2864.00,0.0191
2863.00,0.0191
2862.00,0.0190
2861.00,0.0190
2860.00,0.0189
2859.00,0.0189
2858.00,0.0188
2857.00,0.0188
2856.00,0.0187
2855.00,0.0186
2854.00,0.0186
2853.00,0.0185
2852.00,0.0185
2851.00,0.0185
2850.00,0.0184
2849.00,0.0184
2848.00,0.0184
2847.00,0.0185
2846.00,0.0186
2845.00,0.0187
2844.00,0.0189
2843.00,0.0190
2842.00,0.0191
2841.00,0.0192
2840.00,0.0192
2839.00,0.0193
2838.00,0.0193
2837.00,0.0194
2836.00,0.0194
2835.00,0.0194
2834.00,0.0194
2833.00,0.0194
2832.00,0.0194
2831.00,0.0194
2830.00,0.0194
2829.00,0.0194
2828.00,0.0194
2827.00,0.0194
2826.00,0.0193
2825.00,0.0193
2824.00,0.0193
2823.00,0.0193
2822.00,0.0193
2821.00,0.0193
2820.00,0.0193
2819.00,0.0193
2818.00,0.0192
2817.00,0.0192
2816.00,0.0192
2815.00,0.0192
2814.00,0.0192
2813.00,0.0192
2812.00,0.0192
2811.00,0.0192
2810.00,0.0192
2809.00,0.0192
2808.00,0.0192
2807.00,0.0191
2806.00,0.0191
2805.00,0.0191
2804.00,0.0191
2803.00,0.0191
2802.00,0.0191
2801.00,0.0190
2800.00,0.0190
2799.00,0.0190
2798.00,0.0191
2797.00,0.0191
2796.00,0.0191
2795.00,0.0190
2794.00,0.0190
2793.00,0.0190
2792.00,0.0190
2791.00,0.0190
2790.00,0.0190
2789.00,0.0190
2788.00,0.0190
2787.00,0.0190
2786.00,0.0190
2785.00,0.0190
2784.00,0.0190
2783.00,0.0190
2782.00,0.0190
2781.00,0.0189
2780.00,0.0189
2779.00,0.0189
2778.00,0.0188
2777.00,0.0188
2776.00,0.0189
2775.00,0.0189
2774.00,0.0189
2773.00,0.0189
2772.00,0.0188
2771.00,0.0188
2770.00,0.0188
2769.00,0.0188
2768.00,0.0188
2767.00,0.0187
2766.00,0.0187
2765.00,0.0188
2764.00,0.0188
2763.00,0.0188
2762.00,0.0188
2761.00,0.0188
2760.00,0.0188
2759.00,0.0188
2758.00,0.0187
2757.00,0.0187
2756.00,0.0187
2755.00,0.0187
2754.00,0.0187
