Created as New Dataset,
cm-1,A
4000.00,0.0186
3999.00,0.0186
3998.00,0.0186
3997.00,0.0186
3996.00,0.0186
3995.00,0.0187
3994.00,0.0187
3993.00,0.0187
3992.00,0.0187
3991.00,0.0186
3990.00,0.0186
3989.00,0.0185
3988.00,0.0185
3987.00,0.0185
3986.00,0.0185
3985.00,0.0185
3984.00,0.0185
3983.00,0.0185
3982.00,0.0185
3981.00,0.0185
3980.00,0.0185
3979.00,0.0185
3978.00,0.0185
3977.00,0.0185
3976.00,0.0185
3975.00,0.0186
3974.00,0.0186
3973.00,0.0186
3972.00,0.0186
3971.00,0.0185
3970.00,0.0185
3969.00,0.0184
3968.00,0.0184
3967.00,0.0183
3966.00,0.0183
3965.00,0.0183
3964.00,0.0184
3963.00,0.0184
3962.00,0.0184
3961.00,0.0184
3960.00,0.0184
3959.00,0.0184
3958.00,0.0184
3957.00,0.0184
3956.00,0.0184
3955.00,0.0183
3954.00,0.0183
3953.00,0.0183
3952.00,0.0183
3951.00,0.0184
3950.00,0.0185
3949.00,0.0185
3948.00,0.0185
3947.00,0.0185
3946.00,0.0185
3945.00,0.0185
3944.00,0.0185
3943.00,0.0185
3942.00,0.0184
3941.00,0.0184
3940.00,0.0184
3939.00,0.0184
3938.00,0.0183
3937.00,0.0182
3936.00,0.0182
3935.00,0.0183
3934.00,0.0184
3933.00,0.0185
3932.00,0.0185
3931.00,0.0185
3930.00,0.0185
3929.00,0.0184
3928.00,0.0184
3927.00,0.0184
3926.00,0.0183
3925.00,0.0183
3924.00,0.0183
3923.00,0.0184
3922.00,0.0184
3921.00,0.0185
3920.00,0.0184
3919.00,0.0184
3918.00,0.0184
3917.00,0.0184
3916.00,0.0183
3915.00,0.0182
3914.00,0.0182
3913.00,0.0181
3912.00,0.0181
3911.00,0.0180
3910.00,0.0180
3909.00,0.0180
3908.00,0.0181
3907.00,0.0182
3906.00,0.0183
3905.00,0.0185
3904.00,0.0186
3903.00,0.0188
3902.00,0.0190
3901.00,0.0191
3900.00,0.0190
3899.00,0.0187
3898.00,0.0185
3897.00,0.0183
3896.00,0.0183
3895.00,0.0183
3894.00,0.0184
3893.00,0.0184
3892.00,0.0184
3891.00,0.0183
3890.00,0.0182
3889.00,0.0183
3888.00,0.0185
3887.00,0.0185
3886.00,0.0183
3885.00,0.0182
3884.00,0.0183
3883.00,0.0186
3882.00,0.0188
3881.00,0.0186
3880.00,0.0183
3879.00,0.0181
3878.00,0.0181
3877.00,0.0183
3876.00,0.0183
3875.00,0.0182
3874.00,0.0181
3873.00,0.0182
3872.00,0.0184
3871.00,0.0186
3870.00,0.0184
3869.00,0.0182
3868.00,0.0182
3867.00,0.0185
3866.00,0.0186
3865.00,0.0184
3864.00,0.0183
3863.00,0.0184
3862.00,0.0184
3861.00,0.0183
3860.00,0.0181
3859.00,0.0180
3858.00,0.0179
3857.00,0.0180
3856.00,0.0180
3855.00,0.0180
3854.00,0.0178
3853.00,0.0177
3852.00,0.0178
3851.00,0.0180
3850.00,0.0181
3849.00,0.0181
3848.00,0.0180
3847.00,0.0178
3846.00,0.0178
3845.00,0.0178
3844.00,0.0178
3843.00,0.0178
3842.00,0.0180
3841.00,0.0182
3840.00,0.0183
3839.00,0.0183
3838.00,0.0182
3837.00,0.0182
3836.00,0.0182
3835.00,0.0182
3834.00,0.0182
3833.00,0.0182
3832.00,0.0180
3831.00,0.0178
3830.00,0.0178
3829.00,0.0178
3828.00,0.0179
3827.00,0.0178
3826.00,0.0177
3825.00,0.0178
3824.00,0.0180
3823.00,0.0182
3822.00,0.0181
3821.00,0.0179
3820.00,0.0178
3819.00,0.0179
3818.00,0.0181
3817.00,0.0180
3816.00,0.0176
3815.00,0.0173
3814.00,0.0174
3813.00,0.0175
3812.00,0.0175
3811.00,0.0174
3810.00,0.0173
3809.00,0.0174
3808.00,0.0173
3807.00,0.0172
3806.00,0.0171
3805.00,0.0172
3804.00,0.0176
3803.00,0.0178
3802.00,0.0177
3801.00,0.0174
3800.00,0.0175
3799.00,0.0177
3798.00,0.0179
3797.00,0.0178
3796.00,0.0175
3795.00,0.0174
3794.00,0.0173
3793.00,0.0173
3792.00,0.0172
3791.00,0.0171
3790.00,0.0171
3789.00,0.0170
3788.00,0.0170
3787.00,0.0171
3786.00,0.0171
3785.00,0.0171
3784.00,0.0171
3783.00,0.0172
3782.00,0.0173
3781.00,0.0173
3780.00,0.0172
3779.00,0.0172
3778.00,0.0172
3777.00,0.0172
3776.00,0.0172
3775.00,0.0171
3774.00,0.0170
3773.00,0.0170
3772.00,0.0171
3771.00,0.0171
3770.00,0.0171
3769.00,0.0172
3768.00,0.0173
3767.00,0.0174
3766.00,0.0174
3765.00,0.0172
3764.00,0.0171
3763.00,0.0172
3762.00,0.0174
3761.00,0.0174
3760.00,0.0173
3759.00,0.0173
3758.00,0.0173
3757.00,0.0173
3756.00,0.0173
3755.00,0.0174
3754.00,0.0173
3753.00,0.0172
3752.00,0.0172
3751.00,0.0174
3750.00,0.0175
3749.00,0.0176
3748.00,0.0177
3747.00,0.0180
3746.00,0.0181
3745.00,0.0177
3744.00,0.0171
3743.00,0.0170
3742.00,0.0172
3741.00,0.0174
3740.00,0.0174
3739.00,0.0173
3738.00,0.0173
3737.00,0.0174
3736.00,0.0176
3735.00,0.0179
3734.00,0.0181
3733.00,0.0180
3732.00,0.0176
3731.00,0.0172
3730.00,0.0171
3729.00,0.0171
3728.00,0.0171
3727.00,0.0171
3726.00,0.0170
3725.00,0.0171
3724.00,0.0172
3723.00,0.0172
3722.00,0.0172
3721.00,0.0171
3720.00,0.0170
3719.00,0.0169
3718.00,0.0168
3717.00,0.0167
3716.00,0.0166
3715.00,0.0166
3714.00,0.0166
3713.00,0.0166
3712.00,0.0166
3711.00,0.0168
3710.00,0.0170
3709.00,0.0170
3708.00,0.0168
3707.00,0.0166
3706.00,0.0165
3705.00,0.0164
3704.00,0.0164
3703.00,0.0165
3702.00,0.0165
3701.00,0.0164
3700.00,0.0164
3699.00,0.0164
3698.00,0.0164
3697.00,0.0163
3696.00,0.0162
3695.00,0.0163
3694.00,0.0164
3693.00,0.0165
3692.00,0.0166
3691.00,0.0167
3690.00,0.0168
3689.00,0.0168
3688.00,0.0166
3687.00,0.0165
3686.00,0.0165
3685.00,0.0165
3684.00,0.0165
3683.00,0.0164
3682.00,0.0163
3681.00,0.0163
3680.00,0.0162
3679.00,0.0163
3678.00,0.0166
3677.00,0.0169
3676.00,0.0171
3675.00,0.0170
3674.00,0.0170
3673.00,0.0172
3672.00,0.0174
3671.00,0.0173
3670.00,0.0171
3669.00,0.0171
3668.00,0.0171
3667.00,0.0172
3666.00,0.0171
3665.00,0.0170
3664.00,0.0169
3663.00,0.0168
3662.00,0.0168
3661.00,0.0169
3660.00,0.0170
3659.00,0.0172
3658.00,0.0174
3657.00,0.0176
3656.00,0.0176
3655.00,0.0177
3654.00,0.0179
3653.00,0.0182
3652.00,0.0182
3651.00,0.0182
3650.00,0.0185
3649.00,0.0191
3648.00,0.0195
3647.00,0.0196
3646.00,0.0194
3645.00,0.0192
3644.00,0.0191
3643.00,0.0189
3642.00,0.0189
3641.00,0.0189
3640.00,0.0189
3639.00,0.0190
3638.00,0.0190
3637.00,0.0192
3636.00,0.0193
3635.00,0.0194
3634.00,0.0194
3633.00,0.0194
3632.00,0.0197
3631.00,0.0200
3630.00,0.0203
3629.00,0.0205
3628.00,0.0207
3627.00,0.0208
3626.00,0.0209
3625.00,0.0208
3624.00,0.0207
3623.00,0.0206
3622.00,0.0207
3621.00,0.0210
3620.00,0.0212
3619.00,0.0215
3618.00,0.0217
3617.00,0.0218
3616.00,0.0219
3615.00,0.0219
3614.00,0.0219
3613.00,0.0218
3612.00,0.0219
3611.00,0.0220
3610.00,0.0220
3609.00,0.0220
3608.00,0.0220
3607.00,0.0220
3606.00,0.0220
3605.00,0.0220
3604.00,0.0219
3603.00,0.0219
3602.00,0.0219
3601.00,0.0220
3600.00,0.0221
3599.00,0.0223
3598.00,0.0224
3597.00,0.0225
3596.00,0.0226
3595.00,0.0227
3594.00,0.0228
3593.00,0.0228
3592.00,0.0228
3591.00,0.0228
3590.00,0.0228
3589.00,0.0230
3588.00,0.0233
3587.00,0.0235
3586.00,0.0237
3585.00,0.0237
3584.00,0.0236
3583.00,0.0235
3582.00,0.0234
3581.00,0.0233
3580.00,0.0234
3579.00,0.0234
3578.00,0.0235
3577.00,0.0235
3576.00,0.0235
3575.00,0.0235
3574.00,0.0235
3573.00,0.0235
3572.00,0.0235
3571.00,0.0236
3570.00,0.0238
3569.00,0.0240
3568.00,0.0243
3567.00,0.0247
3566.00,0.0249
3565.00,0.0250
3564.00,0.0249
3563.00,0.0248
3562.00,0.0247
3561.00,0.0246
3560.00,0.0245
3559.00,0.0245
3558.00,0.0245
3557.00,0.0244
3556.00,0.0244
3555.00,0.0244
3554.00,0.0245
3553.00,0.0247
3552.00,0.0248
3551.00,0.0249
3550.00,0.0250
3549.00,0.0250
3548.00,0.0250
3547.00,0.0252
3546.00,0.0254
3545.00,0.0255
3544.00,0.0256
3543.00,0.0255
3542.00,0.0254
3541.00,0.0253
3540.00,0.0252
3539.00,0.0252
3538.00,0.0253
3537.00,0.0253
3536.00,0.0254
3535.00,0.0255
3534.00,0.0255
3533.00,0.0255
3532.00,0.0255
3531.00,0.0256
3530.00,0.0257
3529.00,0.0258
3528.00,0.0259
3527.00,0.0261
3526.00,0.0262
3525.00,0.0262
3524.00,0.0263
3523.00,0.0263
3522.00,0.0264
3521.00,0.0263
3520.00,0.0263
3519.00,0.0263
3518.00,0.0264
3517.00,0.0264
3516.00,0.0265
3515.00,0.0266
3514.00,0.0265
3513.00,0.0265
3512.00,0.0266
3511.00,0.0267
3510.00,0.0268
3509.00,0.0269
3508.00,0.0269
3507.00,0.0269
3506.00,0.0269
3505.00,0.0269
3504.00,0.0270
3503.00,0.0271
3502.00,0.0272
3501.00,0.0273
3500.00,0.0273
3499.00,0.0273
3498.00,0.0272
3497.00,0.0272
3496.00,0.0272
3495.00,0.0272
3494.00,0.0273
3493.00,0.0273
3492.00,0.0273
3491.00,0.0272
3490.00,0.0272
3489.00,0.0272
3488.00,0.0273
3487.00,0.0274
3486.00,0.0275
3485.00,0.0275
3484.00,0.0276
3483.00,0.0277
3482.00,0.0278
3481.00,0.0279
3480.00,0.0279
3479.00,0.0280
3478.00,0.0280
3477.00,0.0280
3476.00,0.0280
3475.00,0.0281
3474.00,0.0281
3473.00,0.0282
3472.00,0.0283
3471.00,0.0283
3470.00,0.0283
3469.00,0.0283
3468.00,0.0283
3467.00,0.0282
3466.00,0.0283
3465.00,0.0283
3464.00,0.0283
3463.00,0.0284
3462.00,0.0284
3461.00,0.0284
3460.00,0.0284
3459.00,0.0284
3458.00,0.0284
3457.00,0.0284
3456.00,0.0285
3455.00,0.0286
3454.00,0.0287
3453.00,0.0288
3452.00,0.0288
3451.00,0.0288
3450.00,0.0288
3449.00,0.0288
3448.00,0.0288
3447.00,0.0289
3446.00,0.0290
3445.00,0.0290
3444.00,0.0291
3443.00,0.0291
3442.00,0.0291
3441.00,0.0291
3440.00,0.0291
3439.00,0.0290
3438.00,0.0290
3437.00,0.0291
3436.00,0.0291
3435.00,0.0292
3434.00,0.0292
3433.00,0.0292
3432.00,0.0293
3431.00,0.0293
3430.00,0.0293
3429.00,0.0293
3428.00,0.0294
3427.00,0.0294
3426.00,0.0294
3425.00,0.0294
3424.00,0.0294
3423.00,0.0294
3422.00,0.0295
3421.00,0.0295
3420.00,0.0296
3419.00,0.0297
3418.00,0.0297
3417.00,0.0297
3416.00,0.0296
3415.00,0.0296
3414.00,0.0296
3413.00,0.0297
3412.00,0.0298
3411.00,0.0299
3410.00,0.0299
3409.00,0.0299
3408.00,0.0299
3407.00,0.0300
3406.00,0.0300
3405.00,0.0300
3404.00,0.0300
3403.00,0.0300
3402.00,0.0300
3401.00,0.0300
3400.00,0.0300
3399.00,0.0300
3398.00,0.0300
3397.00,0.0300
3396.00,0.0300
3395.00,0.0300
3394.00,0.0301
3393.00,0.0301
3392.00,0.0302
3391.00,0.0302
3390.00,0.0302
3389.00,0.0301
3388.00,0.0301
3387.00,0.0301
3386.00,0.0301
3385.00,0.0302
3384.00,0.0302
3383.00,0.0302
3382.00,0.0302
3381.00,0.0301
3380.00,0.0301
3379.00,0.0301
3378.00,0.0302
3377.00,0.0302
3376.00,0.0302
3375.00,0.0303
3374.00,0.0303
3373.00,0.0303
3372.00,0.0303
3371.00,0.0303
3370.00,0.0303
3369.00,0.0303
3368.00,0.0303
3367.00,0.0304
3366.00,0.0305
3365.00,0.0306
3364.00,0.0306
3363.00,0.0306
3362.00,0.0306
3361.00,0.0306
3360.00,0.0306
3359.00,0.0306
3358.00,0.0306
3357.00,0.0307
3356.00,0.0307
3355.00,0.0306
3354.00,0.0306
3353.00,0.0305
3352.00,0.0305
3351.00,0.0305
3350.00,0.0305
3349.00,0.0305
3348.00,0.0304
3347.00,0.0304
3346.00,0.0305
3345.00,0.0305
3344.00,0.0305
3343.00,0.0305
3342.00,0.0305
3341.00,0.0305
3340.00,0.0305
3339.00,0.0305
3338.00,0.0305
3337.00,0.0306
3336.00,0.0306
3335.00,0.0307
3334.00,0.0307
3333.00,0.0307
3332.00,0.0307
3331.00,0.0306
3330.00,0.0306
3329.00,0.0306
3328.00,0.0306
3327.00,0.0306
3326.00,0.0307
3325.00,0.0307
3324.00,0.0307
3323.00,0.0307
3322.00,0.0307
3321.00,0.0307
3320.00,0.0307
3319.00,0.0307
3318.00,0.0307
3317.00,0.0306
3316.00,0.0306
3315.00,0.0306
3314.00,0.0306
3313.00,0.0306
3312.00,0.0306
3311.00,0.0307
3310.00,0.0307
3309.00,0.0307
3308.00,0.0307
3307.00,0.0306
3306.00,0.0307
3305.00,0.0307
3304.00,0.0307
3303.00,0.0307
3302.00,0.0307
3301.00,0.0307
3300.00,0.0306
3299.00,0.0306
3298.00,0.0307
3297.00,0.0307
3296.00,0.0307
3295.00,0.0307
3294.00,0.0307
3293.00,0.0306
3292.00,0.0306
3291.00,0.0307
3290.00,0.0307
3289.00,0.0307
3288.00,0.0307
3287.00,0.0307
3286.00,0.0307
3285.00,0.0307
3284.00,0.0307
3283.00,0.0307
3282.00,0.0307
3281.00,0.0308
3280.00,0.0308
3279.00,0.0308
3278.00,0.0308
3277.00,0.0308
3276.00,0.0308
3275.00,0.0309
3274.00,0.0309
3273.00,0.0309
3272.00,0.0309
3271.00,0.0309
3270.00,0.0309
3269.00,0.0308
3268.00,0.0308
3267.00,0.0308
3266.00,0.0309
3265.00,0.0309
3264.00,0.0309
3263.00,0.0309
3262.00,0.0310
3261.00,0.0310
3260.00,0.0310
3259.00,0.0309
3258.00,0.0309
3257.00,0.0309
3256.00,0.0310
3255.00,0.0310
3254.00,0.0310
3253.00,0.0310
3252.00,0.0309
3251.00,0.0309
3250.00,0.0309
3249.00,0.0309
3248.00,0.0310
3247.00,0.0311
3246.00,0.0311
3245.00,0.0312
3244.00,0.0312
3243.00,0.0312
3242.00,0.0312
3241.00,0.0312
3240.00,0.0312
3239.00,0.0312
3238.00,0.0312
3237.00,0.0312
3236.00,0.0312
3235.00,0.0312
3234.00,0.0312
3233.00,0.0313
3232.00,0.0314
3231.00,0.0314
3230.00,0.0314
3229.00,0.0314
3228.00,0.0314
3227.00,0.0314
3226.00,0.0314
3225.00,0.0314
3224.00,0.0314
3223.00,0.0314
3222.00,0.0314
3221.00,0.0314
3220.00,0.0314
3219.00,0.0314
3218.00,0.0313
3217.00,0.0313
3216.00,0.0313
3215.00,0.0313
3214.00,0.0313
3213.00,0.0314
3212.00,0.0314
3211.00,0.0315
3210.00,0.0315
3209.00,0.0315
3208.00,0.0314
3207.00,0.0314
3206.00,0.0314
3205.00,0.0314
3204.00,0.0314
3203.00,0.0314
3202.00,0.0314
3201.00,0.0315
3200.00,0.0315
3199.00,0.0315
3198.00,0.0315
3197.00,0.0315
3196.00,0.0315
3195.00,0.0315
3194.00,0.0314
3193.00,0.0314
3192.00,0.0314
3191.00,0.0314
3190.00,0.0314
3189.00,0.0314
3188.00,0.0314
3187.00,0.0314
3186.00,0.0314
3185.00,0.0315
3184.00,0.0315
3183.00,0.0315
3182.00,0.0316
3181.00,0.0316
3180.00,0.0316
3179.00,0.0316
3178.00,0.0316
3177.00,0.0315
3176.00,0.0315
3175.00,0.0315
3174.00,0.0315
3173.00,0.0316
3172.00,0.0316
3171.00,0.0316
3170.00,0.0315
3169.00,0.0315
3168.00,0.0314
3167.00,0.0314
3166.00,0.0314
3165.00,0.0315
3164.00,0.0315
3163.00,0.0315
3162.00,0.0315
3161.00,0.0315
3160.00,0.0315
3159.00,0.0315
3158.00,0.0315
3157.00,0.0315
3156.00,0.0314
3155.00,0.0314
3154.00,0.0314
3153.00,0.0314
3152.00,0.0314
3151.00,0.0314
3150.00,0.0314
3149.00,0.0314
3148.00,0.0314
3147.00,0.0314
3146.00,0.0314
3145.00,0.0314
3144.00,0.0314
3143.00,0.0314
3142.00,0.0314
3141.00,0.0314
3140.00,0.0314
3139.00,0.0314
3138.00,0.0313
3137.00,0.0313
3136.00,0.0313
3135.00,0.0313
3134.00,0.0313
3133.00,0.0313
3132.00,0.0313
3131.00,0.0314
3130.00,0.0314
3129.00,0.0314
3128.00,0.0314
3127.00,0.0314
3126.00,0.0314
3125.00,0.0314
3124.00,0.0314
3123.00,0.0313
3122.00,0.0313
3121.00,0.0313
3120.00,0.0313
3119.00,0.0313
3118.00,0.0313
3117.00,0.0313
3116.00,0.0314
3115.00,0.0314
3114.00,0.0314
3113.00,0.0314
3112.00,0.0314
3111.00,0.0314
3110.00,0.0313
3109.00,0.0313
3108.00,0.0313
3107.00,0.0313
3106.00,0.0313
3105.00,0.0313
3104.00,0.0313
3103.00,0.0313
3102.00,0.0313
3101.00,0.0313
3100.00,0.0313
3099.00,0.0313
3098.00,0.0313
3097.00,0.0313
3096.00,0.0313
3095.00,0.0313
3094.00,0.0313
3093.00,0.0312
3092.00,0.0312
3091.00,0.0312
3090.00,0.0312
3089.00,0.0312
3088.00,0.0312
3087.00,0.0312
3086.00,0.0312
3085.00,0.0312
3084.00,0.0312
3083.00,0.0312
3082.00,0.0312
3081.00,0.0312
3080.00,0.0313
3079.00,0.0313
3078.00,0.0313
3077.00,0.0313
3076.00,0.0312
3075.00,0.0312
3074.00,0.0312
3073.00,0.0312
3072.00,0.0312
3071.00,0.0312
3070.00,0.0312
3069.00,0.0312
3068.00,0.0311
3067.00,0.0311
3066.00,0.0312
3065.00,0.0312
3064.00,0.0312
3063.00,0.0312
3062.00,0.0312
3061.00,0.0311
3060.00,0.0311
3059.00,0.0311
3058.00,0.0311
3057.00,0.0311
3056.00,0.0311
3055.00,0.0311
3054.00,0.0311
3053.00,0.0311
3052.00,0.0310
3051.00,0.0310
3050.00,0.0309
3049.00,0.0309
3048.00,0.0309
3047.00,0.0308
3046.00,0.0308
3045.00,0.0308
3044.00,0.0309
3043.00,0.0309
3042.00,0.0308
3041.00,0.0308
3040.00,0.0308
3039.00,0.0308
3038.00,0.0308
3037.00,0.0308
3036.00,0.0308
3035.00,0.0308
3034.00,0.0308
3033.00,0.0308
3032.00,0.0308
3031.00,0.0308
3030.00,0.0308
3029.00,0.0307
3028.00,0.0306
3027.00,0.0306
3026.00,0.0305
3025.00,0.0305
3024.00,0.0305
3023.00,0.0305
3022.00,0.0306
3021.00,0.0306
3020.00,0.0306
3019.00,0.0305
3018.00,0.0305
3017.00,0.0305
3016.00,0.0305
3015.00,0.0305
3014.00,0.0305
3013.00,0.0304
3012.00,0.0304
3011.00,0.0304
3010.00,0.0304
3009.00,0.0303
3008.00,0.0303
3007.00,0.0303
3006.00,0.0302
3005.00,0.0302
3004.00,0.0302
3003.00,0.0302
3002.00,0.0302
3001.00,0.0301
3000.00,0.0301
2999.00,0.0300
2998.00,0.0300
2997.00,0.0299
2996.00,0.0299
2995.00,0.0299
2994.00,0.0299
2993.00,0.0299
2992.00,0.0298
2991.00,0.0298
2990.00,0.0297
2989.00,0.0297
2988.00,0.0297
2987.00,0.0296
2986.00,0.0296
2985.00,0.0296
2984.00,0.0295
2983.00,0.0294
2982.00,0.0293
2981.00,0.0293
2980.00,0.0293
2979.00,0.0293
2978.00,0.0294
2977.00,0.0294
2976.00,0.0294
2975.00,0.0293
2974.00,0.0293
2973.00,0.0292
2972.00,0.0291
2971.00,0.0290
2970.00,0.0290
2969.00,0.0289
2968.00,0.0289
2967.00,0.0289
2966.00,0.0289
2965.00,0.0289
2964.00,0.0288
2963.00,0.0288
2962.00,0.0287
2961.00,0.0287
2960.00,0.0287
2959.00,0.0287
2958.00,0.0286
2957.00,0.0286
2956.00,0.0286
2955.00,0.0286
2954.00,0.0286
2953.00,0.0287
2952.00,0.0287
2951.00,0.0288
2950.00,0.0288
2949.00,0.0287
2948.00,0.0287
2947.00,0.0287
2946.00,0.0287
2945.00,0.0287
2944.00,0.0287
2943.00,0.0287
2942.00,0.0286
2941.00,0.0285
2940.00,0.0284
2939.00,0.0283
2938.00,0.0282
2937.00,0.0281
2936.00,0.0281
2935.00,0.0280
2934.00,0.0279
2933.00,0.0278
2932.00,0.0277
2931.00,0.0276
2930.00,0.0274
2929.00,0.0273
2928.00,0.0272
2927.00,0.0271
2926.00,0.0270
2925.00,0.0269
2924.00,0.0269
2923.00,0.0269
2922.00,0.0269
2921.00,0.0269
2920.00,0.0269
2919.00,0.0268
2918.00,0.0268
2917.00,0.0268
2916.00,0.0268
2915.00,0.0270
2914.00,0.0272
2913.00,0.0274
2912.00,0.0275
2911.00,0.0277
2910.00,0.0277
2909.00,0.0278
2908.00,0.0279
2907.00,0.0279
2906.00,0.0279
2905.00,0.0279
2904.00,0.0279
2903.00,0.0279
2902.00,0.0280
2901.00,0.0280
2900.00,0.0280
2899.00,0.0281
2898.00,0.0281
2897.00,0.0280
2896.00,0.0280
2895.00,0.0280
2894.00,0.0280
2893.00,0.0280
2892.00,0.0281
2891.00,0.0281
2890.00,0.0281
2889.00,0.0281
2888.00,0.0281
2887.00,0.0281
2886.00,0.0281
2885.00,0.0281
2884.00,0.0282
2883.00,0.0282
2882.00,0.0282
2881.00,0.0282
2880.00,0.0282
2879.00,0.0281
2878.00,0.0281
2877.00,0.0281
2876.00,0.0280
2875.00,0.0279
2874.00,0.0278
2873.00,0.0278
2872.00,0.0277
2871.00,0.0277
2870.00,0.0277
2869.00,0.0277
2868.00,0.0277
2867.00,0.0276
2866.00,0.0276
2865.00,0.0275
2864.00,0.0275
2863.00,0.0275
2862.00,0.0274
2861.00,0.0273
2860.00,0.0273
2859.00,0.0272
2858.00,0.0271
2857.00,0.0271
2856.00,0.0270
2855.00,0.0269
2854.00,0.0269
2853.00,0.0269
2852.00,0.0269
2851.00,0.0269
2850.00,0.0269
2849.00,0.0269
2848.00,0.0270
2847.00,0.0271
2846.00,0.0272
2845.00,0.0273
2844.00,0.0273
2843.00,0.0274
2842.00,0.0275
2841.00,0.0275
2840.00,0.0276
2839.00,0.0277
2838.00,0.0277
2837.00,0.0277
2836.00,0.0277
2835.00,0.0277
2834.00,0.0276
2833.00,0.0276
2832.00,0.0276
2831.00,0.0276
2830.00,0.0276
2829.00,0.0276
2828.00,0.0276
2827.00,0.0276
2826.00,0.0276
2825.00,0.0275
2824.00,0.0275
2823.00,0.0275
2822.00,0.0275
2821.00,0.0275
2820.00,0.0275
2819.00,0.0275
2818.00,0.0275
2817.00,0.0274
2816.00,0.0274
2815.00,0.0274
2814.00,0.0273
2813.00,0.0273
2812.00,0.0273
2811.00,0.0272
2810.00,0.0272
2809.00,0.0272
2808.00,0.0272
2807.00,0.0272
2806.00,0.0272
2805.00,0.0272
2804.00,0.0271
2803.00,0.0271
2802.00,0.0271
2801.00,0.0271
2800.00,0.0270
2799.00,0.0270
2798.00,0.0270
2797.00,0.0270
2796.00,0.0270
2795.00,0.0269
2794.00,0.0269
2793.00,0.0269
2792.00,0.0269
2791.00,0.0269
2790.00,0.0269
2789.00,0.0269
2788.00,0.0269
2787.00,0.0269
2786.00,0.0269
2785.00,0.0268
2784.00,0.0268
2783.00,0.0268
2782.00,0.0267
2781.00,0.0267
2780.00,0.0267
2779.00,0.0267
2778.00,0.0267
2777.00,0.0267
2776.00,0.0267
2775.00,0.0267
2774.00,0.0267
2773.00,0.0266
2772.00,0.0266
2771.00,0.0265
2770.00,0.0265
2769.00,0.0265
2768.00,0.0265
2767.00,0.0265
2766.00,0.0264
2765.00,0.0264
2764.00,0.0264
2763.00,0.0264
2762.00,0.0263
2761.00,0.0263
2760.00,0.0263
2759.00,0.0263
2758.00,0.0263
2757.00,0.0263
2756.00,0.0263
2755.00,0.0262
2754.00,0.0262
