Created as New Dataset,
cm-1,A
4000.00,0.0214
3999.00,0.0214
3998.00,0.0213
3997.00,0.0213
3996.00,0.0215
3995.00,0.0215
3994.00,0.0215
3993.00,0.0215
3992.00,0.0215
3991.00,0.0214
3990.00,0.0214
3989.00,0.0213
3988.00,0.0214
3987.00,0.0214
3986.00,0.0214
3985.00,0.0214
3984.00,0.0214
3983.00,0.0214
3982.00,0.0214
3981.00,0.0215
3980.00,0.0215
3979.00,0.0215
3978.00,0.0215
3977.00,0.0215
3976.00,0.0215
3975.00,0.0215
3974.00,0.0215
3973.00,0.0215
3972.00,0.0215
3971.00,0.0215
3970.00,0.0214
3969.00,0.0214
3968.00,0.0213
3967.00,0.0213
3966.00,0.0213
3965.00,0.0213
3964.00,0.0213
3963.00,0.0214
3962.00,0.0214
3961.00,0.0215
3960.00,0.0215
3959.00,0.0216
3958.00,0.0215
3957.00,0.0215
3956.00,0.0214
3955.00,0.0214
3954.00,0.0214
3953.00,0.0215
3952.00,0.0215
3951.00,0.0216
3950.00,0.0216
3949.00,0.0216
3948.00,0.0216
3947.00,0.0217
3946.00,0.0218
3945.00,0.0219
3944.00,0.0219
3943.00,0.0218
3942.00,0.0217
3941.00,0.0217
3940.00,0.0217
3939.00,0.0216
3938.00,0.0215
3937.00,0.0214
3936.00,0.0214
3935.00,0.0215
3934.00,0.0216
3933.00,0.0216
3932.00,0.0217
3931.00,0.0217
3930.00,0.0218
3929.00,0.0218
3928.00,0.0219
3927.00,0.0219
3926.00,0.0219
3925.00,0.0218
3924.00,0.0217
3923.00,0.0217
3922.00,0.0217
3921.00,0.0217
3920.00,0.0216
3919.00,0.0216
3918.00,0.0216
3917.00,0.0216
3916.00,0.0216
3915.00,0.0216
3914.00,0.0216
3913.00,0.0215
3912.00,0.0214
3911.00,0.0213
3910.00,0.0213
3909.00,0.0214
3908.00,0.0216
3907.00,0.0217
3906.00,0.0218
3905.00,0.0217
3904.00,0.0218
3903.00,0.0220
3902.00,0.0223
3901.00,0.0225
3900.00,0.0224
3899.00,0.0222
3898.00,0.0219
3897.00,0.0218
3896.00,0.0217
3895.00,0.0217
3894.00,0.0217
3893.00,0.0217
3892.00,0.0216
3891.00,0.0215
3890.00,0.0214
3889.00,0.0217
3888.00,0.0219
3887.00,0.0219
3886.00,0.0217
3885.00,0.0216
3884.00,0.0219
3883.00,0.0223
3882.00,0.0225
3881.00,0.0222
3880.00,0.0219
3879.00,0.0217
3878.00,0.0218
3877.00,0.0220
3876.00,0.0221
3875.00,0.0218
3874.00,0.0216
3873.00,0.0217
3872.00,0.0220
3871.00,0.0221
3870.00,0.0218
3869.00,0.0216
3868.00,0.0218
3867.00,0.0221
3866.00,0.0221
3865.00,0.0218
3864.00,0.0217
3863.00,0.0217
3862.00,0.0218
3861.00,0.0217
3860.00,0.0215
3859.00,0.0213
3858.00,0.0213
3857.00,0.0215
3856.00,0.0218
3855.00,0.0218
3854.00,0.0217
3853.00,0.0216
3852.00,0.0218
3851.00,0.0219
3850.00,0.0219
3849.00,0.0216
3848.00,0.0214
3847.00,0.0213
3846.00,0.0212
3845.00,0.0213
3844.00,0.0212
3843.00,0.0213
3842.00,0.0214
3841.00,0.0216
3840.00,0.0218
3839.00,0.0218
3838.00,0.0219
3837.00,0.0219
3836.00,0.0219
3835.00,0.0219
3834.00,0.0219
3833.00,0.0217
3832.00,0.0215
3831.00,0.0213
3830.00,0.0214
3829.00,0.0215
3828.00,0.0215
3827.00,0.0213
3826.00,0.0211
3825.00,0.0212
3824.00,0.0215
3823.00,0.0217
3822.00,0.0215
3821.00,0.0211
3820.00,0.0212
3819.00,0.0215
3818.00,0.0219
3817.00,0.0218
3816.00,0.0213
3815.00,0.0211
3814.00,0.0212
3813.00,0.0212
3812.00,0.0211
3811.00,0.0209
3810.00,0.0209
3809.00,0.0210
3808.00,0.0209
3807.00,0.0207
3806.00,0.0206
3805.00,0.0209
3804.00,0.0214
3803.00,0.0216
3802.00,0.0214
3801.00,0.0212
3800.00,0.0213
3799.00,0.0216
3798.00,0.0217
3797.00,0.0214
3796.00,0.0211
3795.00,0.0209
3794.00,0.0210
3793.00,0.0210
3792.00,0.0209
3791.00,0.0208
3790.00,0.0207
3789.00,0.0207
3788.00,0.0208
3787.00,0.0208
3786.00,0.0208
3785.00,0.0208
3784.00,0.0208
3783.00,0.0209
3782.00,0.0210
3781.00,0.0211
3780.00,0.0210
3779.00,0.0208
3778.00,0.0208
3777.00,0.0209
3776.00,0.0209
3775.00,0.0207
3774.00,0.0206
3773.00,0.0206
3772.00,0.0207
3771.00,0.0207
3770.00,0.0206
3769.00,0.0207
3768.00,0.0210
3767.00,0.0212
3766.00,0.0211
3765.00,0.0209
3764.00,0.0208
3763.00,0.0209
3762.00,0.0211
3761.00,0.0210
3760.00,0.0209
3759.00,0.0209
3758.00,0.0209
3757.00,0.0209
3756.00,0.0209
3755.00,0.0209
3754.00,0.0208
3753.00,0.0205
3752.00,0.0202
3751.00,0.0203
3750.00,0.0205
3749.00,0.0207
3748.00,0.0210
3747.00,0.0214
3746.00,0.0217
3745.00,0.0214
3744.00,0.0209
3743.00,0.0207
3742.00,0.0208
3741.00,0.0208
3740.00,0.0206
3739.00,0.0205
3738.00,0.0206
3737.00,0.0207
3736.00,0.0208
3735.00,0.0210
3734.00,0.0213
3733.00,0.0213
3732.00,0.0210
3731.00,0.0207
3730.00,0.0206
3729.00,0.0206
3728.00,0.0206
3727.00,0.0205
3726.00,0.0205
3725.00,0.0207
3724.00,0.0209
3723.00,0.0210
3722.00,0.0209
3721.00,0.0208
3720.00,0.0208
3719.00,0.0207
3718.00,0.0206
3717.00,0.0204
3716.00,0.0205
3715.00,0.0206
3714.00,0.0206
3713.00,0.0206
3712.00,0.0206
3711.00,0.0208
3710.00,0.0210
3709.00,0.0211
3708.00,0.0211
3707.00,0.0209
3706.00,0.0208
3705.00,0.0208
3704.00,0.0210
3703.00,0.0211
3702.00,0.0211
3701.00,0.0211
3700.00,0.0212
3699.00,0.0212
3698.00,0.0212
3697.00,0.0211
3696.00,0.0211
3695.00,0.0211
3694.00,0.0212
3693.00,0.0214
3692.00,0.0215
3691.00,0.0215
3690.00,0.0216
3689.00,0.0217
3688.00,0.0216
3687.00,0.0215
3686.00,0.0215
3685.00,0.0214
3684.00,0.0212
3683.00,0.0210
3682.00,0.0209
3681.00,0.0208
3680.00,0.0207
3679.00,0.0208
3678.00,0.0212
3677.00,0.0216
3676.00,0.0217
3675.00,0.0217
3674.00,0.0218
3673.00,0.0221
3672.00,0.0222
3671.00,0.0219
3670.00,0.0216
3669.00,0.0216
3668.00,0.0218
3667.00,0.0219
3666.00,0.0217
3665.00,0.0215
3664.00,0.0214
3663.00,0.0213
3662.00,0.0213
3661.00,0.0214
3660.00,0.0214
3659.00,0.0216
3658.00,0.0217
3657.00,0.0218
3656.00,0.0219
3655.00,0.0221
3654.00,0.0225
3653.00,0.0229
3652.00,0.0230
3651.00,0.0228
3650.00,0.0229
3649.00,0.0236
3648.00,0.0242
3647.00,0.0244
3646.00,0.0241
3645.00,0.0238
3644.00,0.0236
3643.00,0.0234
3642.00,0.0233
3641.00,0.0232
3640.00,0.0232
3639.00,0.0232
3638.00,0.0233
3637.00,0.0233
3636.00,0.0235
3635.00,0.0235
3634.00,0.0234
3633.00,0.0234
3632.00,0.0236
3631.00,0.0240
3630.00,0.0242
3629.00,0.0244
3628.00,0.0247
3627.00,0.0249
3626.00,0.0250
3625.00,0.0249
3624.00,0.0248
3623.00,0.0248
3622.00,0.0250
3621.00,0.0253
3620.00,0.0256
3619.00,0.0259
3618.00,0.0261
3617.00,0.0262
3616.00,0.0262
3615.00,0.0261
3614.00,0.0258
3613.00,0.0257
3612.00,0.0257
3611.00,0.0258
3610.00,0.0260
3609.00,0.0260
3608.00,0.0261
3607.00,0.0262
3606.00,0.0263
3605.00,0.0263
3604.00,0.0262
3603.00,0.0261
3602.00,0.0261
3601.00,0.0261
3600.00,0.0262
3599.00,0.0264
3598.00,0.0265
3597.00,0.0267
3596.00,0.0268
3595.00,0.0269
3594.00,0.0269
3593.00,0.0269
3592.00,0.0269
3591.00,0.0269
3590.00,0.0271
3589.00,0.0273
3588.00,0.0276
3587.00,0.0279
3586.00,0.0281
3585.00,0.0281
3584.00,0.0280
3583.00,0.0278
3582.00,0.0277
3581.00,0.0276
3580.00,0.0277
3579.00,0.0278
3578.00,0.0278
3577.00,0.0279
3576.00,0.0279
3575.00,0.0278
3574.00,0.0278
3573.00,0.0278
3572.00,0.0279
3571.00,0.0280
3570.00,0.0283
3569.00,0.0286
3568.00,0.0289
3567.00,0.0293
3566.00,0.0296
3565.00,0.0297
3564.00,0.0296
3563.00,0.0294
3562.00,0.0292
3561.00,0.0291
3560.00,0.0290
3559.00,0.0289
3558.00,0.0289
3557.00,0.0289
3556.00,0.0289
3555.00,0.0289
3554.00,0.0290
3553.00,0.0292
3552.00,0.0293
3551.00,0.0294
3550.00,0.0295
3549.00,0.0296
3548.00,0.0296
3547.00,0.0298
3546.00,0.0300
3545.00,0.0301
3544.00,0.0302
3543.00,0.0302
3542.00,0.0301
3541.00,0.0300
3540.00,0.0300
3539.00,0.0300
3538.00,0.0301
3537.00,0.0302
3536.00,0.0303
3535.00,0.0304
3534.00,0.0304
3533.00,0.0303
3532.00,0.0303
3531.00,0.0303
3530.00,0.0304
3529.00,0.0305
3528.00,0.0306
3527.00,0.0307
3526.00,0.0309
3525.00,0.0310
3524.00,0.0311
3523.00,0.0311
3522.00,0.0311
3521.00,0.0312
3520.00,0.0311
3519.00,0.0311
3518.00,0.0311
3517.00,0.0312
3516.00,0.0313
3515.00,0.0313
3514.00,0.0313
3513.00,0.0314
3512.00,0.0314
3511.00,0.0315
3510.00,0.0316
3509.00,0.0317
3508.00,0.0317
3507.00,0.0318
3506.00,0.0318
3505.00,0.0318
3504.00,0.0319
3503.00,0.0321
3502.00,0.0322
3501.00,0.0324
3500.00,0.0324
3499.00,0.0324
3498.00,0.0324
3497.00,0.0324
3496.00,0.0324
3495.00,0.0324
3494.00,0.0324
3493.00,0.0324
3492.00,0.0324
3491.00,0.0324
3490.00,0.0325
3489.00,0.0325
3488.00,0.0326
3487.00,0.0327
3486.00,0.0328
3485.00,0.0329
3484.00,0.0330
3483.00,0.0330
3482.00,0.0331
3481.00,0.0331
3480.00,0.0332
3479.00,0.0333
3478.00,0.0333
3477.00,0.0333
3476.00,0.0333
3475.00,0.0333
3474.00,0.0333
3473.00,0.0334
3472.00,0.0335
3471.00,0.0335
3470.00,0.0336
3469.00,0.0336
3468.00,0.0336
3467.00,0.0337
3466.00,0.0337
3465.00,0.0338
3464.00,0.0339
3463.00,0.0339
3462.00,0.0340
3461.00,0.0340
3460.00,0.0340
3459.00,0.0340
3458.00,0.0341
3457.00,0.0341
3456.00,0.0342
3455.00,0.0343
3454.00,0.0343
3453.00,0.0344
3452.00,0.0344
3451.00,0.0344
3450.00,0.0345
3449.00,0.0345
3448.00,0.0346
3447.00,0.0347
3446.00,0.0347
3445.00,0.0348
3444.00,0.0348
3443.00,0.0348
3442.00,0.0349
3441.00,0.0349
3440.00,0.0349
3439.00,0.0349
3438.00,0.0349
3437.00,0.0349
3436.00,0.0350
3435.00,0.0350
3434.00,0.0351
3433.00,0.0351
3432.00,0.0352
3431.00,0.0352
3430.00,0.0353
3429.00,0.0353
3428.00,0.0353
3427.00,0.0353
3426.00,0.0354
3425.00,0.0354
3424.00,0.0355
3423.00,0.0355
3422.00,0.0356
3421.00,0.0357
3420.00,0.0358
3419.00,0.0358
3418.00,0.0358
3417.00,0.0358
3416.00,0.0358
3415.00,0.0357
3414.00,0.0358
3413.00,0.0358
3412.00,0.0359
3411.00,0.0360
3410.00,0.0360
3409.00,0.0361
3408.00,0.0361
3407.00,0.0362
3406.00,0.0362
3405.00,0.0363
3404.00,0.0363
3403.00,0.0363
3402.00,0.0363
3401.00,0.0363
3400.00,0.0363
3399.00,0.0363
3398.00,0.0363
3397.00,0.0363
3396.00,0.0363
3395.00,0.0364
3394.00,0.0364
3393.00,0.0365
3392.00,0.0366
3391.00,0.0366
3390.00,0.0366
3389.00,0.0366
3388.00,0.0367
3387.00,0.0367
3386.00,0.0368
3385.00,0.0368
3384.00,0.0368
3383.00,0.0368
3382.00,0.0367
3381.00,0.0367
3380.00,0.0367
3379.00,0.0368
3378.00,0.0368
3377.00,0.0369
3376.00,0.0369
3375.00,0.0369
3374.00,0.0370
3373.00,0.0370
3372.00,0.0371
3371.00,0.0371
3370.00,0.0372
3369.00,0.0372
3368.00,0.0372
3367.00,0.0373
3366.00,0.0373
3365.00,0.0374
3364.00,0.0374
3363.00,0.0375
3362.00,0.0375
3361.00,0.0375
3360.00,0.0375
3359.00,0.0375
3358.00,0.0375
3357.00,0.0375
3356.00,0.0375
3355.00,0.0375
3354.00,0.0374
3353.00,0.0374
3352.00,0.0374
3351.00,0.0374
3350.00,0.0374
3349.00,0.0375
3348.00,0.0375
3347.00,0.0375
3346.00,0.0375
3345.00,0.0375
3344.00,0.0376
3343.00,0.0376
3342.00,0.0376
3341.00,0.0377
3340.00,0.0377
3339.00,0.0378
3338.00,0.0378
3337.00,0.0378
3336.00,0.0378
3335.00,0.0378
3334.00,0.0379
3333.00,0.0379
3332.00,0.0379
3331.00,0.0379
3330.00,0.0379
3329.00,0.0379
3328.00,0.0379
3327.00,0.0379
3326.00,0.0379
3325.00,0.0380
3324.00,0.0380
3323.00,0.0381
3322.00,0.0381
3321.00,0.0380
3320.00,0.0380
3319.00,0.0380
3318.00,0.0380
3317.00,0.0380
3316.00,0.0380
3315.00,0.0380
3314.00,0.0380
3313.00,0.0380
3312.00,0.0380
3311.00,0.0381
3310.00,0.0381
3309.00,0.0382
3308.00,0.0382
3307.00,0.0382
3306.00,0.0383
3305.00,0.0383
3304.00,0.0383
3303.00,0.0383
3302.00,0.0382
3301.00,0.0382
3300.00,0.0381
3299.00,0.0381
3298.00,0.0381
3297.00,0.0382
3296.00,0.0382
3295.00,0.0382
3294.00,0.0382
3293.00,0.0382
3292.00,0.0383
3291.00,0.0383
3290.00,0.0383
3289.00,0.0383
3288.00,0.0383
3287.00,0.0383
3286.00,0.0383
3285.00,0.0384
3284.00,0.0384
3283.00,0.0384
3282.00,0.0384
3281.00,0.0384
3280.00,0.0384
3279.00,0.0384
3278.00,0.0384
3277.00,0.0384
3276.00,0.0384
3275.00,0.0384
3274.00,0.0385
3273.00,0.0385
3272.00,0.0386
3271.00,0.0386
3270.00,0.0386
3269.00,0.0386
3268.00,0.0385
3267.00,0.0385
3266.00,0.0385
3265.00,0.0385
3264.00,0.0386
3263.00,0.0386
3262.00,0.0386
3261.00,0.0386
3260.00,0.0385
3259.00,0.0385
3258.00,0.0385
3257.00,0.0386
3256.00,0.0386
3255.00,0.0386
3254.00,0.0386
3253.00,0.0386
3252.00,0.0385
3251.00,0.0385
3250.00,0.0385
3249.00,0.0385
3248.00,0.0386
3247.00,0.0387
3246.00,0.0388
3245.00,0.0388
3244.00,0.0389
3243.00,0.0388
3242.00,0.0388
3241.00,0.0387
3240.00,0.0387
3239.00,0.0387
3238.00,0.0387
3237.00,0.0387
3236.00,0.0388
3235.00,0.0388
3234.00,0.0389
3233.00,0.0389
3232.00,0.0390
3231.00,0.0390
3230.00,0.0390
3229.00,0.0390
3228.00,0.0389
3227.00,0.0389
3226.00,0.0389
3225.00,0.0389
3224.00,0.0389
3223.00,0.0389
3222.00,0.0389
3221.00,0.0389
3220.00,0.0389
3219.00,0.0389
3218.00,0.0389
3217.00,0.0388
3216.00,0.0388
3215.00,0.0388
3214.00,0.0388
3213.00,0.0389
3212.00,0.0389
3211.00,0.0390
3210.00,0.0390
3209.00,0.0389
3208.00,0.0389
3207.00,0.0389
3206.00,0.0389
3205.00,0.0389
3204.00,0.0389
3203.00,0.0389
3202.00,0.0389
3201.00,0.0389
3200.00,0.0389
3199.00,0.0389
3198.00,0.0389
3197.00,0.0389
3196.00,0.0389
3195.00,0.0390
3194.00,0.0390
3193.00,0.0389
3192.00,0.0389
3191.00,0.0388
3190.00,0.0388
3189.00,0.0388
3188.00,0.0387
3187.00,0.0388
3186.00,0.0388
3185.00,0.0389
3184.00,0.0389
3183.00,0.0389
3182.00,0.0389
3181.00,0.0389
3180.00,0.0388
3179.00,0.0388
3178.00,0.0388
3177.00,0.0387
3176.00,0.0387
3175.00,0.0388
3174.00,0.0388
3173.00,0.0388
3172.00,0.0389
3171.00,0.0389
3170.00,0.0388
3169.00,0.0388
3168.00,0.0387
3167.00,0.0386
3166.00,0.0386
3165.00,0.0387
3164.00,0.0386
3163.00,0.0386
3162.00,0.0386
3161.00,0.0385
3160.00,0.0385
3159.00,0.0386
3158.00,0.0386
3157.00,0.0385
3156.00,0.0385
3155.00,0.0384
3154.00,0.0384
3153.00,0.0384
3152.00,0.0384
3151.00,0.0384
3150.00,0.0384
3149.00,0.0384
3148.00,0.0384
3147.00,0.0384
3146.00,0.0383
3145.00,0.0384
3144.00,0.0384
3143.00,0.0384
3142.00,0.0384
3141.00,0.0384
3140.00,0.0383
3139.00,0.0383
3138.00,0.0383
3137.00,0.0383
3136.00,0.0382
3135.00,0.0382
3134.00,0.0382
3133.00,0.0381
3132.00,0.0381
3131.00,0.0381
3130.00,0.0381
3129.00,0.0381
3128.00,0.0381
3127.00,0.0381
3126.00,0.0381
3125.00,0.0381
3124.00,0.0381
3123.00,0.0380
3122.00,0.0380
3121.00,0.0379
3120.00,0.0379
3119.00,0.0379
3118.00,0.0379
3117.00,0.0379
3116.00,0.0379
3115.00,0.0380
3114.00,0.0380
3113.00,0.0380
3112.00,0.0380
3111.00,0.0380
3110.00,0.0379
3109.00,0.0379
3108.00,0.0378
3107.00,0.0378
3106.00,0.0378
3105.00,0.0378
3104.00,0.0378
3103.00,0.0378
3102.00,0.0378
3101.00,0.0378
3100.00,0.0378
3099.00,0.0378
3098.00,0.0378
3097.00,0.0378
3096.00,0.0379
3095.00,0.0379
3094.00,0.0378
3093.00,0.0378
3092.00,0.0378
3091.00,0.0378
3090.00,0.0377
3089.00,0.0377
3088.00,0.0377
3087.00,0.0377
3086.00,0.0377
3085.00,0.0377
3084.00,0.0377
3083.00,0.0377
3082.00,0.0377
3081.00,0.0377
3080.00,0.0377
3079.00,0.0377
3078.00,0.0377
3077.00,0.0376
3076.00,0.0376
3075.00,0.0376
3074.00,0.0375
3073.00,0.0375
3072.00,0.0375
3071.00,0.0376
3070.00,0.0376
3069.00,0.0375
3068.00,0.0375
3067.00,0.0375
3066.00,0.0375
3065.00,0.0375
3064.00,0.0375
3063.00,0.0375
3062.00,0.0375
3061.00,0.0374
3060.00,0.0374
3059.00,0.0374
3058.00,0.0374
3057.00,0.0374
3056.00,0.0373
3055.00,0.0373
3054.00,0.0373
3053.00,0.0373
3052.00,0.0372
3051.00,0.0372
3050.00,0.0372
3049.00,0.0371
3048.00,0.0371
3047.00,0.0371
3046.00,0.0370
3045.00,0.0370
3044.00,0.0370
3043.00,0.0370
3042.00,0.0370
3041.00,0.0370
3040.00,0.0369
3039.00,0.0369
3038.00,0.0369
3037.00,0.0369
3036.00,0.0369
3035.00,0.0368
3034.00,0.0368
3033.00,0.0367
3032.00,0.0367
3031.00,0.0367
3030.00,0.0367
3029.00,0.0366
3028.00,0.0365
3027.00,0.0364
3026.00,0.0364
3025.00,0.0364
3024.00,0.0364
3023.00,0.0364
3022.00,0.0364
3021.00,0.0364
3020.00,0.0364
3019.00,0.0363
3018.00,0.0363
3017.00,0.0362
3016.00,0.0362
3015.00,0.0362
3014.00,0.0363
3013.00,0.0362
3012.00,0.0362
3011.00,0.0362
3010.00,0.0361
3009.00,0.0360
3008.00,0.0359
3007.00,0.0359
3006.00,0.0358
3005.00,0.0357
3004.00,0.0357
3003.00,0.0356
3002.00,0.0356
3001.00,0.0355
3000.00,0.0354
2999.00,0.0354
2998.00,0.0353
2997.00,0.0353
2996.00,0.0352
2995.00,0.0352
2994.00,0.0351
2993.00,0.0351
2992.00,0.0350
2991.00,0.0349
2990.00,0.0349
2989.00,0.0349
2988.00,0.0348
2987.00,0.0348
2986.00,0.0347
2985.00,0.0347
2984.00,0.0345
2983.00,0.0344
2982.00,0.0343
2981.00,0.0342
2980.00,0.0342
2979.00,0.0342
2978.00,0.0343
2977.00,0.0344
2976.00,0.0344
2975.00,0.0344
2974.00,0.0343
2973.00,0.0342
2972.00,0.0341
2971.00,0.0340
2970.00,0.0340
2969.00,0.0339
2968.00,0.0339
2967.00,0.0339
2966.00,0.0339
2965.00,0.0339
2964.00,0.0339
2963.00,0.0338
2962.00,0.0338
2961.00,0.0338
2960.00,0.0338
2959.00,0.0337
2958.00,0.0337
2957.00,0.0337
2956.00,0.0337
2955.00,0.0337
2954.00,0.0337
2953.00,0.0338
2952.00,0.0338
2951.00,0.0338
2950.00,0.0338
2949.00,0.0338
2948.00,0.0338
2947.00,0.0338
2946.00,0.0338
2945.00,0.0339
2944.00,0.0339
2943.00,0.0338
2942.00,0.0338
2941.00,0.0337
2940.00,0.0336
2939.00,0.0335
2938.00,0.0334
2937.00,0.0334
2936.00,0.0333
2935.00,0.0332
2934.00,0.0331
2933.00,0.0330
2932.00,0.0329
2931.00,0.0328
2930.00,0.0326
2929.00,0.0325
2928.00,0.0324
2927.00,0.0323
2926.00,0.0323
2925.00,0.0322
2924.00,0.0322
2923.00,0.0322
2922.00,0.0322
2921.00,0.0322
2920.00,0.0321
2919.00,0.0320
2918.00,0.0319
2917.00,0.0319
2916.00,0.0319
2915.00,0.0321
2914.00,0.0323
2913.00,0.0325
2912.00,0.0326
2911.00,0.0327
2910.00,0.0328
2909.00,0.0328
2908.00,0.0329
2907.00,0.0329
2906.00,0.0329
2905.00,0.0329
2904.00,0.0329
2903.00,0.0329
2902.00,0.0330
2901.00,0.0330
2900.00,0.0330
2899.00,0.0330
2898.00,0.0329
2897.00,0.0329
2896.00,0.0328
2895.00,0.0328
2894.00,0.0328
2893.00,0.0329
2892.00,0.0329
2891.00,0.0329
2890.00,0.0329
2889.00,0.0329
2888.00,0.0329
2887.00,0.0329
2886.00,0.0329
2885.00,0.0330
2884.00,0.0330
2883.00,0.0330
2882.00,0.0330
2881.00,0.0329
2880.00,0.0329
2879.00,0.0329
2878.00,0.0328
2877.00,0.0328
2876.00,0.0328
2875.00,0.0327
2874.00,0.0326
2873.00,0.0325
2872.00,0.0324
2871.00,0.0324
2870.00,0.0324
2869.00,0.0324
2868.00,0.0324
2867.00,0.0323
2866.00,0.0323
2865.00,0.0323
2864.00,0.0323
2863.00,0.0323
2862.00,0.0322
2861.00,0.0322
2860.00,0.0321
2859.00,0.0320
2858.00,0.0320
2857.00,0.0319
2856.00,0.0318
2855.00,0.0318
2854.00,0.0317
2853.00,0.0317
2852.00,0.0317
2851.00,0.0317
2850.00,0.0317
2849.00,0.0317
2848.00,0.0317
2847.00,0.0317
2846.00,0.0318
2845.00,0.0319
2844.00,0.0320
2843.00,0.0321
2842.00,0.0322
2841.00,0.0323
2840.00,0.0323
2839.00,0.0323
2838.00,0.0323
2837.00,0.0323
2836.00,0.0324
2835.00,0.0323
2834.00,0.0323
2833.00,0.0323
2832.00,0.0323
2831.00,0.0323
2830.00,0.0323
2829.00,0.0323
2828.00,0.0322
2827.00,0.0322
2826.00,0.0322
2825.00,0.0322
2824.00,0.0321
2823.00,0.0321
2822.00,0.0321
2821.00,0.0321
2820.00,0.0321
2819.00,0.0321
2818.00,0.0321
2817.00,0.0320
2816.00,0.0320
2815.00,0.0320
2814.00,0.0319
2813.00,0.0319
2812.00,0.0319
2811.00,0.0318
2810.00,0.0318
2809.00,0.0318
2808.00,0.0318
2807.00,0.0318
2806.00,0.0317
2805.00,0.0317
2804.00,0.0317
2803.00,0.0317
2802.00,0.0317
2801.00,0.0317
2800.00,0.0317
2799.00,0.0317
2798.00,0.0317
2797.00,0.0316
2796.00,0.0316
2795.00,0.0315
2794.00,0.0315
2793.00,0.0315
2792.00,0.0314
2791.00,0.0314
2790.00,0.0314
2789.00,0.0315
2788.00,0.0315
2787.00,0.0314
2786.00,0.0314
2785.00,0.0314
2784.00,0.0313
2783.00,0.0313
2782.00,0.0313
2781.00,0.0313
2780.00,0.0313
2779.00,0.0313
2778.00,0.0312
2777.00,0.0312
2776.00,0.0312
2775.00,0.0312
2774.00,0.0312
2773.00,0.0311
2772.00,0.0311
2771.00,0.0311
2770.00,0.0311
2769.00,0.0311
2768.00,0.0310
2767.00,0.0310
2766.00,0.0310
2765.00,0.0310
2764.00,0.0310
2763.00,0.0310
2762.00,0.0310
2761.00,0.0310
2760.00,0.0309
2759.00,0.0309
2758.00,0.0308
2757.00,0.0308
2756.00,0.0308
2755.00,0.0307
2754.00,0.0308
