Created as New Dataset,Monday, April 03 2023
cm-1,A
4000.00,0.0143
3999.00,0.0143
3998.00,0.0143
3997.00,0.0143
3996.00,0.0143
3995.00,0.0143
3994.00,0.0143
3993.00,0.0143
3992.00,0.0143
3991.00,0.0143
3990.00,0.0143
3989.00,0.0143
3988.00,0.0143
3987.00,0.0143
3986.00,0.0143
3985.00,0.0143
3984.00,0.0142
3983.00,0.0142
3982.00,0.0142
3981.00,0.0142
3980.00,0.0142
3979.00,0.0143
3978.00,0.0143
3977.00,0.0143
3976.00,0.0143
3975.00,0.0142
3974.00,0.0142
3973.00,0.0142
3972.00,0.0142
3971.00,0.0142
3970.00,0.0141
3969.00,0.0141
3968.00,0.0141
3967.00,0.0141
3966.00,0.0142
3965.00,0.0142
3964.00,0.0142
3963.00,0.0142
3962.00,0.0142
3961.00,0.0141
3960.00,0.0141
3959.00,0.0141
3958.00,0.0141
3957.00,0.0141
3956.00,0.0141
3955.00,0.0141
3954.00,0.0141
3953.00,0.0141
3952.00,0.0141
3951.00,0.0141
3950.00,0.0141
3949.00,0.0141
3948.00,0.0141
3947.00,0.0141
3946.00,0.0141
3945.00,0.0141
3944.00,0.0141
3943.00,0.0140
3942.00,0.0139
3941.00,0.0139
3940.00,0.0140
3939.00,0.0140
3938.00,0.0140
3937.00,0.0141
3936.00,0.0141
3935.00,0.0142
3934.00,0.0142
3933.00,0.0142
3932.00,0.0142
3931.00,0.0141
3930.00,0.0141
3929.00,0.0140
3928.00,0.0140
3927.00,0.0140
3926.00,0.0140
3925.00,0.0140
3924.00,0.0139
3923.00,0.0139
3922.00,0.0139
3921.00,0.0139
3920.00,0.0139
3919.00,0.0139
3918.00,0.0139
3917.00,0.0139
3916.00,0.0138
3915.00,0.0138
3914.00,0.0139
3913.00,0.0139
3912.00,0.0139
3911.00,0.0139
3910.00,0.0139
3909.00,0.0139
3908.00,0.0140
3907.00,0.0140
3906.00,0.0139
3905.00,0.0139
3904.00,0.0139
3903.00,0.0138
3902.00,0.0138
3901.00,0.0138
3900.00,0.0137
3899.00,0.0136
3898.00,0.0137
3897.00,0.0138
3896.00,0.0140
3895.00,0.0140
3894.00,0.0140
3893.00,0.0139
3892.00,0.0138
3891.00,0.0137
3890.00,0.0137
3889.00,0.0139
3888.00,0.0140
3887.00,0.0140
3886.00,0.0139
3885.00,0.0140
3884.00,0.0140
3883.00,0.0140
3882.00,0.0139
3881.00,0.0137
3880.00,0.0135
3879.00,0.0136
3878.00,0.0137
3877.00,0.0139
3876.00,0.0139
3875.00,0.0139
3874.00,0.0139
3873.00,0.0139
3872.00,0.0139
3871.00,0.0138
3870.00,0.0137
3869.00,0.0137
3868.00,0.0139
3867.00,0.0141
3866.00,0.0141
3865.00,0.0139
3864.00,0.0138
3863.00,0.0137
3862.00,0.0137
3861.00,0.0138
3860.00,0.0139
3859.00,0.0139
3858.00,0.0139
3857.00,0.0139
3856.00,0.0139
3855.00,0.0141
3854.00,0.0142
3853.00,0.0140
3852.00,0.0139
3851.00,0.0139
3850.00,0.0139
3849.00,0.0138
3848.00,0.0138
3847.00,0.0138
3846.00,0.0138
3845.00,0.0138
3844.00,0.0137
3843.00,0.0138
3842.00,0.0138
3841.00,0.0139
3840.00,0.0139
3839.00,0.0138
3838.00,0.0138
3837.00,0.0138
3836.00,0.0138
3835.00,0.0137
3834.00,0.0137
3833.00,0.0137
3832.00,0.0137
3831.00,0.0137
3830.00,0.0138
3829.00,0.0139
3828.00,0.0138
3827.00,0.0138
3826.00,0.0137
3825.00,0.0138
3824.00,0.0139
3823.00,0.0139
3822.00,0.0139
3821.00,0.0138
3820.00,0.0138
3819.00,0.0139
3818.00,0.0139
3817.00,0.0138
3816.00,0.0137
3815.00,0.0137
3814.00,0.0138
3813.00,0.0138
3812.00,0.0138
3811.00,0.0137
3810.00,0.0137
3809.00,0.0138
3808.00,0.0138
3807.00,0.0139
3806.00,0.0139
3805.00,0.0141
3804.00,0.0141
3803.00,0.0141
3802.00,0.0140
3801.00,0.0138
3800.00,0.0138
3799.00,0.0139
3798.00,0.0138
3797.00,0.0136
3796.00,0.0135
3795.00,0.0134
3794.00,0.0135
3793.00,0.0135
3792.00,0.0135
3791.00,0.0135
3790.00,0.0135
3789.00,0.0135
3788.00,0.0136
3787.00,0.0136
3786.00,0.0136
3785.00,0.0135
3784.00,0.0135
3783.00,0.0136
3782.00,0.0136
3781.00,0.0135
3780.00,0.0134
3779.00,0.0133
3778.00,0.0133
3777.00,0.0134
3776.00,0.0134
3775.00,0.0135
3774.00,0.0135
3773.00,0.0135
3772.00,0.0136
3771.00,0.0135
3770.00,0.0135
3769.00,0.0135
3768.00,0.0135
3767.00,0.0135
3766.00,0.0134
3765.00,0.0134
3764.00,0.0135
3763.00,0.0137
3762.00,0.0137
3761.00,0.0137
3760.00,0.0137
3759.00,0.0136
3758.00,0.0136
3757.00,0.0136
3756.00,0.0137
3755.00,0.0137
3754.00,0.0139
3753.00,0.0140
3752.00,0.0142
3751.00,0.0142
3750.00,0.0142
3749.00,0.0141
3748.00,0.0140
3747.00,0.0139
3746.00,0.0137
3745.00,0.0135
3744.00,0.0136
3743.00,0.0138
3742.00,0.0141
3741.00,0.0142
3740.00,0.0141
3739.00,0.0141
3738.00,0.0142
3737.00,0.0142
3736.00,0.0141
3735.00,0.0139
3734.00,0.0137
3733.00,0.0136
3732.00,0.0136
3731.00,0.0137
3730.00,0.0139
3729.00,0.0141
3728.00,0.0141
3727.00,0.0141
3726.00,0.0141
3725.00,0.0141
3724.00,0.0141
3723.00,0.0141
3722.00,0.0141
3721.00,0.0142
3720.00,0.0143
3719.00,0.0144
3718.00,0.0145
3717.00,0.0147
3716.00,0.0149
3715.00,0.0152
3714.00,0.0154
3713.00,0.0158
3712.00,0.0161
3711.00,0.0163
3710.00,0.0165
3709.00,0.0167
3708.00,0.0170
3707.00,0.0174
3706.00,0.0177
3705.00,0.0179
3704.00,0.0183
3703.00,0.0186
3702.00,0.0191
3701.00,0.0195
3700.00,0.0200
3699.00,0.0204
3698.00,0.0207
3697.00,0.0209
3696.00,0.0210
3695.00,0.0211
3694.00,0.0211
3693.00,0.0211
3692.00,0.0210
3691.00,0.0209
3690.00,0.0208
3689.00,0.0206
3688.00,0.0204
3687.00,0.0203
3686.00,0.0202
3685.00,0.0200
3684.00,0.0197
3683.00,0.0195
3682.00,0.0193
3681.00,0.0191
3680.00,0.0189
3679.00,0.0187
3678.00,0.0185
3677.00,0.0185
3676.00,0.0185
3675.00,0.0186
3674.00,0.0188
3673.00,0.0190
3672.00,0.0191
3671.00,0.0191
3670.00,0.0190
3669.00,0.0190
3668.00,0.0191
3667.00,0.0192
3666.00,0.0193
3665.00,0.0194
3664.00,0.0195
3663.00,0.0196
3662.00,0.0197
3661.00,0.0198
3660.00,0.0199
3659.00,0.0201
3658.00,0.0204
3657.00,0.0207
3656.00,0.0210
3655.00,0.0213
3654.00,0.0214
3653.00,0.0213
3652.00,0.0213
3651.00,0.0215
3650.00,0.0218
3649.00,0.0219
3648.00,0.0217
3647.00,0.0215
3646.00,0.0215
3645.00,0.0215
3644.00,0.0214
3643.00,0.0212
3642.00,0.0211
3641.00,0.0210
3640.00,0.0209
3639.00,0.0208
3638.00,0.0208
3637.00,0.0207
3636.00,0.0207
3635.00,0.0208
3634.00,0.0208
3633.00,0.0207
3632.00,0.0207
3631.00,0.0208
3630.00,0.0211
3629.00,0.0216
3628.00,0.0220
3627.00,0.0225
3626.00,0.0230
3625.00,0.0235
3624.00,0.0239
3623.00,0.0243
3622.00,0.0246
3621.00,0.0248
3620.00,0.0248
3619.00,0.0245
3618.00,0.0241
3617.00,0.0236
3616.00,0.0232
3615.00,0.0227
3614.00,0.0223
3613.00,0.0221
3612.00,0.0219
3611.00,0.0218
3610.00,0.0217
3609.00,0.0216
3608.00,0.0215
3607.00,0.0214
3606.00,0.0214
3605.00,0.0214
3604.00,0.0214
3603.00,0.0213
3602.00,0.0213
3601.00,0.0212
3600.00,0.0211
3599.00,0.0210
3598.00,0.0210
3597.00,0.0209
3596.00,0.0210
3595.00,0.0210
3594.00,0.0211
3593.00,0.0211
3592.00,0.0211
3591.00,0.0210
3590.00,0.0209
3589.00,0.0209
3588.00,0.0208
3587.00,0.0208
3586.00,0.0208
3585.00,0.0209
3584.00,0.0210
3583.00,0.0210
3582.00,0.0210
3581.00,0.0209
3580.00,0.0210
3579.00,0.0210
3578.00,0.0210
3577.00,0.0211
3576.00,0.0211
3575.00,0.0211
3574.00,0.0211
3573.00,0.0211
3572.00,0.0211
3571.00,0.0211
3570.00,0.0211
3569.00,0.0211
3568.00,0.0212
3567.00,0.0213
3566.00,0.0214
3565.00,0.0214
3564.00,0.0214
3563.00,0.0214
3562.00,0.0214
3561.00,0.0214
3560.00,0.0214
3559.00,0.0214
3558.00,0.0215
3557.00,0.0215
3556.00,0.0215
3555.00,0.0216
3554.00,0.0216
3553.00,0.0217
3552.00,0.0217
3551.00,0.0218
3550.00,0.0218
3549.00,0.0218
3548.00,0.0219
3547.00,0.0219
3546.00,0.0220
3545.00,0.0220
3544.00,0.0220
3543.00,0.0220
3542.00,0.0220
3541.00,0.0220
3540.00,0.0220
3539.00,0.0221
3538.00,0.0221
3537.00,0.0221
3536.00,0.0222
3535.00,0.0222
3534.00,0.0223
3533.00,0.0223
3532.00,0.0223
3531.00,0.0223
3530.00,0.0224
3529.00,0.0224
3528.00,0.0225
3527.00,0.0225
3526.00,0.0226
3525.00,0.0226
3524.00,0.0227
3523.00,0.0227
3522.00,0.0227
3521.00,0.0227
3520.00,0.0227
3519.00,0.0227
3518.00,0.0227
3517.00,0.0228
3516.00,0.0228
3515.00,0.0229
3514.00,0.0229
3513.00,0.0229
3512.00,0.0229
3511.00,0.0229
3510.00,0.0229
3509.00,0.0230
3508.00,0.0230
3507.00,0.0231
3506.00,0.0231
3505.00,0.0231
3504.00,0.0232
3503.00,0.0232
3502.00,0.0232
3501.00,0.0232
3500.00,0.0232
3499.00,0.0233
3498.00,0.0234
3497.00,0.0235
3496.00,0.0235
3495.00,0.0236
3494.00,0.0236
3493.00,0.0236
3492.00,0.0236
3491.00,0.0237
3490.00,0.0237
3489.00,0.0238
3488.00,0.0238
3487.00,0.0238
3486.00,0.0238
3485.00,0.0237
3484.00,0.0237
3483.00,0.0237
3482.00,0.0238
3481.00,0.0238
3480.00,0.0239
3479.00,0.0239
3478.00,0.0240
3477.00,0.0240
3476.00,0.0240
3475.00,0.0241
3474.00,0.0241
3473.00,0.0242
3472.00,0.0242
3471.00,0.0242
3470.00,0.0242
3469.00,0.0242
3468.00,0.0243
3467.00,0.0243
3466.00,0.0243
3465.00,0.0244
3464.00,0.0244
3463.00,0.0244
3462.00,0.0244
3461.00,0.0245
3460.00,0.0245
3459.00,0.0245
3458.00,0.0245
3457.00,0.0245
3456.00,0.0245
3455.00,0.0245
3454.00,0.0245
3453.00,0.0246
3452.00,0.0247
3451.00,0.0247
3450.00,0.0247
3449.00,0.0247
3448.00,0.0247
3447.00,0.0248
3446.00,0.0248
3445.00,0.0248
3444.00,0.0249
3443.00,0.0249
3442.00,0.0249
3441.00,0.0250
3440.00,0.0250
3439.00,0.0250
3438.00,0.0250
3437.00,0.0250
3436.00,0.0250
3435.00,0.0251
3434.00,0.0251
3433.00,0.0251
3432.00,0.0251
3431.00,0.0252
3430.00,0.0252
3429.00,0.0252
3428.00,0.0252
3427.00,0.0252
3426.00,0.0252
3425.00,0.0253
3424.00,0.0253
3423.00,0.0253
3422.00,0.0253
3421.00,0.0253
3420.00,0.0253
3419.00,0.0254
3418.00,0.0254
3417.00,0.0254
3416.00,0.0254
3415.00,0.0254
3414.00,0.0254
3413.00,0.0254
3412.00,0.0254
3411.00,0.0254
3410.00,0.0254
3409.00,0.0254
3408.00,0.0254
3407.00,0.0255
3406.00,0.0255
3405.00,0.0255
3404.00,0.0256
3403.00,0.0256
3402.00,0.0256
3401.00,0.0257
3400.00,0.0257
3399.00,0.0256
3398.00,0.0256
3397.00,0.0256
3396.00,0.0257
3395.00,0.0257
3394.00,0.0258
3393.00,0.0258
3392.00,0.0258
3391.00,0.0258
3390.00,0.0257
3389.00,0.0257
3388.00,0.0258
3387.00,0.0258
3386.00,0.0258
3385.00,0.0258
3384.00,0.0258
3383.00,0.0257
3382.00,0.0257
3381.00,0.0258
3380.00,0.0258
3379.00,0.0258
3378.00,0.0258
3377.00,0.0258
3376.00,0.0259
3375.00,0.0259
3374.00,0.0259
3373.00,0.0259
3372.00,0.0259
3371.00,0.0259
3370.00,0.0259
3369.00,0.0259
3368.00,0.0260
3367.00,0.0260
3366.00,0.0260
3365.00,0.0260
3364.00,0.0260
3363.00,0.0260
3362.00,0.0260
3361.00,0.0260
3360.00,0.0260
3359.00,0.0260
3358.00,0.0260
3357.00,0.0260
3356.00,0.0260
3355.00,0.0260
3354.00,0.0260
3353.00,0.0260
3352.00,0.0260
3351.00,0.0261
3350.00,0.0261
3349.00,0.0261
3348.00,0.0261
3347.00,0.0261
3346.00,0.0261
3345.00,0.0261
3344.00,0.0260
3343.00,0.0261
3342.00,0.0261
3341.00,0.0261
3340.00,0.0261
3339.00,0.0261
3338.00,0.0260
3337.00,0.0260
3336.00,0.0260
3335.00,0.0260
3334.00,0.0260
3333.00,0.0260
3332.00,0.0260
3331.00,0.0260
3330.00,0.0260
3329.00,0.0261
3328.00,0.0261
3327.00,0.0262
3326.00,0.0262
3325.00,0.0262
3324.00,0.0262
3323.00,0.0261
3322.00,0.0260
3321.00,0.0260
3320.00,0.0260
3319.00,0.0260
3318.00,0.0261
3317.00,0.0261
3316.00,0.0261
3315.00,0.0261
3314.00,0.0261
3313.00,0.0260
3312.00,0.0260
3311.00,0.0260
3310.00,0.0261
3309.00,0.0261
3308.00,0.0262
3307.00,0.0262
3306.00,0.0261
3305.00,0.0261
3304.00,0.0261
3303.00,0.0261
3302.00,0.0261
3301.00,0.0261
3300.00,0.0261
3299.00,0.0261
3298.00,0.0261
3297.00,0.0261
3296.00,0.0261
3295.00,0.0261
3294.00,0.0261
3293.00,0.0261
3292.00,0.0261
3291.00,0.0261
3290.00,0.0261
3289.00,0.0260
3288.00,0.0260
3287.00,0.0261
3286.00,0.0261
3285.00,0.0261
3284.00,0.0261
3283.00,0.0261
3282.00,0.0261
3281.00,0.0261
3280.00,0.0261
3279.00,0.0261
3278.00,0.0261
3277.00,0.0261
3276.00,0.0261
3275.00,0.0261
3274.00,0.0261
3273.00,0.0261
3272.00,0.0261
3271.00,0.0261
3270.00,0.0260
3269.00,0.0260
3268.00,0.0260
3267.00,0.0261
3266.00,0.0261
3265.00,0.0261
3264.00,0.0260
3263.00,0.0260
3262.00,0.0259
3261.00,0.0259
3260.00,0.0259
3259.00,0.0259
3258.00,0.0259
3257.00,0.0259
3256.00,0.0259
3255.00,0.0259
3254.00,0.0260
3253.00,0.0260
3252.00,0.0260
3251.00,0.0259
3250.00,0.0259
3249.00,0.0259
3248.00,0.0259
3247.00,0.0260
3246.00,0.0260
3245.00,0.0260
3244.00,0.0259
3243.00,0.0259
3242.00,0.0259
3241.00,0.0258
3240.00,0.0258
3239.00,0.0259
3238.00,0.0259
3237.00,0.0259
3236.00,0.0259
3235.00,0.0259
3234.00,0.0258
3233.00,0.0258
3232.00,0.0258
3231.00,0.0259
3230.00,0.0259
3229.00,0.0259
3228.00,0.0259
3227.00,0.0259
3226.00,0.0258
3225.00,0.0258
3224.00,0.0257
3223.00,0.0257
3222.00,0.0257
3221.00,0.0257
3220.00,0.0257
3219.00,0.0258
3218.00,0.0258
3217.00,0.0258
3216.00,0.0258
3215.00,0.0258
3214.00,0.0258
3213.00,0.0257
3212.00,0.0257
3211.00,0.0257
3210.00,0.0257
3209.00,0.0257
3208.00,0.0257
3207.00,0.0257
3206.00,0.0256
3205.00,0.0256
3204.00,0.0256
3203.00,0.0256
3202.00,0.0256
3201.00,0.0256
3200.00,0.0255
3199.00,0.0255
3198.00,0.0255
3197.00,0.0255
3196.00,0.0255
3195.00,0.0255
3194.00,0.0255
3193.00,0.0255
3192.00,0.0254
3191.00,0.0254
3190.00,0.0254
3189.00,0.0254
3188.00,0.0254
3187.00,0.0254
3186.00,0.0254
3185.00,0.0254
3184.00,0.0254
3183.00,0.0254
3182.00,0.0253
3181.00,0.0253
3180.00,0.0252
3179.00,0.0252
3178.00,0.0252
3177.00,0.0252
3176.00,0.0252
3175.00,0.0251
3174.00,0.0252
3173.00,0.0252
3172.00,0.0252
3171.00,0.0252
3170.00,0.0251
3169.00,0.0251
3168.00,0.0251
3167.00,0.0251
3166.00,0.0250
3165.00,0.0250
3164.00,0.0250
3163.00,0.0250
3162.00,0.0249
3161.00,0.0249
3160.00,0.0249
3159.00,0.0248
3158.00,0.0248
3157.00,0.0248
3156.00,0.0248
3155.00,0.0248
3154.00,0.0248
3153.00,0.0248
3152.00,0.0248
3151.00,0.0248
3150.00,0.0248
3149.00,0.0247
3148.00,0.0247
3147.00,0.0247
3146.00,0.0247
3145.00,0.0247
3144.00,0.0246
3143.00,0.0246
3142.00,0.0246
3141.00,0.0246
3140.00,0.0246
3139.00,0.0246
3138.00,0.0246
3137.00,0.0246
3136.00,0.0246
3135.00,0.0246
3134.00,0.0245
3133.00,0.0245
3132.00,0.0245
3131.00,0.0245
3130.00,0.0245
3129.00,0.0244
3128.00,0.0244
3127.00,0.0244
3126.00,0.0244
3125.00,0.0244
3124.00,0.0244
3123.00,0.0243
3122.00,0.0243
3121.00,0.0243
3120.00,0.0243
3119.00,0.0243
3118.00,0.0244
3117.00,0.0243
3116.00,0.0243
3115.00,0.0242
3114.00,0.0242
3113.00,0.0242
3112.00,0.0241
3111.00,0.0241
3110.00,0.0241
3109.00,0.0241
3108.00,0.0241
3107.00,0.0241
3106.00,0.0241
3105.00,0.0240
3104.00,0.0240
3103.00,0.0240
3102.00,0.0240
3101.00,0.0240
3100.00,0.0240
3099.00,0.0239
3098.00,0.0239
3097.00,0.0238
3096.00,0.0238
3095.00,0.0238
3094.00,0.0239
3093.00,0.0239
3092.00,0.0239
3091.00,0.0239
3090.00,0.0240
3089.00,0.0240
3088.00,0.0240
3087.00,0.0239
3086.00,0.0239
3085.00,0.0239
3084.00,0.0238
3083.00,0.0238
3082.00,0.0238
3081.00,0.0238
3080.00,0.0239
3079.00,0.0239
3078.00,0.0238
3077.00,0.0238
3076.00,0.0238
3075.00,0.0238
3074.00,0.0238
3073.00,0.0238
3072.00,0.0237
3071.00,0.0237
3070.00,0.0236
3069.00,0.0236
3068.00,0.0236
3067.00,0.0237
3066.00,0.0237
3065.00,0.0237
3064.00,0.0237
3063.00,0.0237
3062.00,0.0237
3061.00,0.0236
3060.00,0.0236
3059.00,0.0235
3058.00,0.0235
3057.00,0.0235
3056.00,0.0235
3055.00,0.0235
3054.00,0.0234
3053.00,0.0234
3052.00,0.0234
3051.00,0.0234
3050.00,0.0234
3049.00,0.0233
3048.00,0.0233
3047.00,0.0233
3046.00,0.0234
3045.00,0.0233
3044.00,0.0233
3043.00,0.0233
3042.00,0.0232
3041.00,0.0232
3040.00,0.0232
3039.00,0.0231
3038.00,0.0231
3037.00,0.0231
3036.00,0.0231
3035.00,0.0231
3034.00,0.0231
3033.00,0.0231
3032.00,0.0230
3031.00,0.0230
3030.00,0.0230
3029.00,0.0230
3028.00,0.0229
3027.00,0.0229
3026.00,0.0229
3025.00,0.0229
3024.00,0.0229
3023.00,0.0229
3022.00,0.0229
3021.00,0.0229
3020.00,0.0229
3019.00,0.0229
3018.00,0.0229
3017.00,0.0228
3016.00,0.0228
3015.00,0.0228
3014.00,0.0228
3013.00,0.0228
3012.00,0.0228
3011.00,0.0228
3010.00,0.0228
3009.00,0.0228
3008.00,0.0228
3007.00,0.0229
3006.00,0.0229
3005.00,0.0229
3004.00,0.0229
3003.00,0.0229
3002.00,0.0230
3001.00,0.0230
3000.00,0.0230
2999.00,0.0230
2998.00,0.0230
2997.00,0.0230
2996.00,0.0229
2995.00,0.0229
2994.00,0.0230
2993.00,0.0230
2992.00,0.0230
2991.00,0.0230
2990.00,0.0230
2989.00,0.0230
2988.00,0.0230
2987.00,0.0230
2986.00,0.0230
2985.00,0.0231
2984.00,0.0232
2983.00,0.0232
2982.00,0.0233
2981.00,0.0232
2980.00,0.0232
2979.00,0.0231
2978.00,0.0231
2977.00,0.0230
2976.00,0.0230
2975.00,0.0230
2974.00,0.0230
2973.00,0.0229
2972.00,0.0229
2971.00,0.0228
2970.00,0.0228
2969.00,0.0227
2968.00,0.0226
2967.00,0.0226
2966.00,0.0225
2965.00,0.0224
2964.00,0.0224
2963.00,0.0223
2962.00,0.0222
2961.00,0.0222
2960.00,0.0221
2959.00,0.0220
2958.00,0.0220
2957.00,0.0220
2956.00,0.0220
2955.00,0.0220
2954.00,0.0220
2953.00,0.0220
2952.00,0.0220
2951.00,0.0220
2950.00,0.0219
2949.00,0.0219
2948.00,0.0219
2947.00,0.0219
2946.00,0.0219
2945.00,0.0219
2944.00,0.0218
2943.00,0.0218
2942.00,0.0217
2941.00,0.0216
2940.00,0.0216
2939.00,0.0215
2938.00,0.0214
2937.00,0.0213
2936.00,0.0212
2935.00,0.0211
2934.00,0.0211
2933.00,0.0210
2932.00,0.0209
2931.00,0.0208
2930.00,0.0207
2929.00,0.0205
2928.00,0.0204
2927.00,0.0203
2926.00,0.0202
2925.00,0.0202
2924.00,0.0202
2923.00,0.0201
2922.00,0.0201
2921.00,0.0201
2920.00,0.0200
2919.00,0.0200
2918.00,0.0199
2917.00,0.0199
2916.00,0.0200
2915.00,0.0201
2914.00,0.0203
2913.00,0.0205
2912.00,0.0207
2911.00,0.0208
2910.00,0.0209
2909.00,0.0209
2908.00,0.0210
2907.00,0.0211
2906.00,0.0211
2905.00,0.0211
2904.00,0.0212
2903.00,0.0212
2902.00,0.0212
2901.00,0.0212
2900.00,0.0212
2899.00,0.0212
2898.00,0.0212
2897.00,0.0212
2896.00,0.0212
2895.00,0.0212
2894.00,0.0212
2893.00,0.0212
2892.00,0.0212
2891.00,0.0213
2890.00,0.0213
2889.00,0.0213
2888.00,0.0214
2887.00,0.0214
2886.00,0.0214
2885.00,0.0214
2884.00,0.0213
2883.00,0.0213
2882.00,0.0213
2881.00,0.0212
2880.00,0.0212
2879.00,0.0211
2878.00,0.0211
2877.00,0.0211
2876.00,0.0211
2875.00,0.0211
2874.00,0.0210
2873.00,0.0210
2872.00,0.0209
2871.00,0.0208
2870.00,0.0208
2869.00,0.0207
2868.00,0.0207
2867.00,0.0206
2866.00,0.0206
2865.00,0.0205
2864.00,0.0205
2863.00,0.0204
2862.00,0.0204
2861.00,0.0203
2860.00,0.0202
2859.00,0.0202
2858.00,0.0201
2857.00,0.0199
2856.00,0.0198
2855.00,0.0197
2854.00,0.0197
2853.00,0.0197
2852.00,0.0197
2851.00,0.0197
2850.00,0.0197
2849.00,0.0197
2848.00,0.0198
2847.00,0.0199
2846.00,0.0199
2845.00,0.0200
2844.00,0.0201
2843.00,0.0202
2842.00,0.0202
2841.00,0.0202
2840.00,0.0203
2839.00,0.0203
2838.00,0.0203
2837.00,0.0203
2836.00,0.0203
2835.00,0.0203
2834.00,0.0203
2833.00,0.0203
2832.00,0.0203
2831.00,0.0202
2830.00,0.0202
2829.00,0.0202
2828.00,0.0202
2827.00,0.0202
2826.00,0.0202
2825.00,0.0202
2824.00,0.0202
2823.00,0.0202
2822.00,0.0202
2821.00,0.0202
2820.00,0.0202
2819.00,0.0202
2818.00,0.0201
2817.00,0.0201
2816.00,0.0201
2815.00,0.0201
2814.00,0.0201
2813.00,0.0201
2812.00,0.0200
2811.00,0.0200
2810.00,0.0200
2809.00,0.0199
2808.00,0.0199
2807.00,0.0199
2806.00,0.0198
2805.00,0.0198
2804.00,0.0198
2803.00,0.0198
2802.00,0.0199
2801.00,0.0198
2800.00,0.0198
2799.00,0.0198
2798.00,0.0198
2797.00,0.0198
2796.00,0.0198
2795.00,0.0198
2794.00,0.0197
2793.00,0.0197
2792.00,0.0197
2791.00,0.0196
2790.00,0.0196
2789.00,0.0197
2788.00,0.0197
2787.00,0.0197
2786.00,0.0196
2785.00,0.0196
2784.00,0.0196
2783.00,0.0195
2782.00,0.0195
2781.00,0.0195
2780.00,0.0194
2779.00,0.0194
2778.00,0.0194
2777.00,0.0194
2776.00,0.0194
2775.00,0.0194
2774.00,0.0194
2773.00,0.0193
2772.00,0.0193
2771.00,0.0194
2770.00,0.0194
2769.00,0.0194
2768.00,0.0193
2767.00,0.0193
2766.00,0.0193
2765.00,0.0193
2764.00,0.0193
2763.00,0.0192
2762.00,0.0192
2761.00,0.0192
2760.00,0.0192
2759.00,0.0192
2758.00,0.0191
2757.00,0.0191
2756.00,0.0191
2755.00,0.0191
