Created as New Dataset,Monday, April 03 2023
cm-1,A
4000.00,0.0060
3999.00,0.0060
3998.00,0.0060
3997.00,0.0059
3996.00,0.0059
3995.00,0.0059
3994.00,0.0059
3993.00,0.0059
3992.00,0.0060
3991.00,0.0060
3990.00,0.0060
3989.00,0.0059
3988.00,0.0059
3987.00,0.0059
3986.00,0.0059
3985.00,0.0059
3984.00,0.0059
3983.00,0.0058
3982.00,0.0058
3981.00,0.0058
3980.00,0.0058
3979.00,0.0059
3978.00,0.0059
3977.00,0.0059
3976.00,0.0059
3975.00,0.0059
3974.00,0.0059
3973.00,0.0059
3972.00,0.0058
3971.00,0.0058
3970.00,0.0058
3969.00,0.0058
3968.00,0.0058
3967.00,0.0058
3966.00,0.0059
3965.00,0.0059
3964.00,0.0059
3963.00,0.0059
3962.00,0.0059
3961.00,0.0059
3960.00,0.0058
3959.00,0.0058
3958.00,0.0058
3957.00,0.0058
3956.00,0.0058
3955.00,0.0057
3954.00,0.0057
3953.00,0.0058
3952.00,0.0058
3951.00,0.0058
3950.00,0.0058
3949.00,0.0059
3948.00,0.0059
3947.00,0.0059
3946.00,0.0058
3945.00,0.0058
3944.00,0.0057
3943.00,0.0057
3942.00,0.0057
3941.00,0.0057
3940.00,0.0057
3939.00,0.0058
3938.00,0.0058
3937.00,0.0058
3936.00,0.0058
3935.00,0.0059
3934.00,0.0059
3933.00,0.0059
3932.00,0.0059
3931.00,0.0058
3930.00,0.0058
3929.00,0.0057
3928.00,0.0057
3927.00,0.0056
3926.00,0.0056
3925.00,0.0056
3924.00,0.0056
3923.00,0.0056
3922.00,0.0057
3921.00,0.0057
3920.00,0.0058
3919.00,0.0058
3918.00,0.0058
3917.00,0.0057
3916.00,0.0057
3915.00,0.0056
3914.00,0.0056
3913.00,0.0056
3912.00,0.0056
3911.00,0.0056
3910.00,0.0056
3909.00,0.0056
3908.00,0.0057
3907.00,0.0057
3906.00,0.0058
3905.00,0.0059
3904.00,0.0060
3903.00,0.0061
3902.00,0.0061
3901.00,0.0060
3900.00,0.0059
3899.00,0.0058
3898.00,0.0057
3897.00,0.0057
3896.00,0.0057
3895.00,0.0057
3894.00,0.0056
3893.00,0.0056
3892.00,0.0055
3891.00,0.0056
3890.00,0.0056
3889.00,0.0057
3888.00,0.0058
3887.00,0.0058
3886.00,0.0057
3885.00,0.0057
3884.00,0.0057
3883.00,0.0057
3882.00,0.0056
3881.00,0.0055
3880.00,0.0055
3879.00,0.0056
3878.00,0.0056
3877.00,0.0056
3876.00,0.0055
3875.00,0.0054
3874.00,0.0054
3873.00,0.0055
3872.00,0.0056
3871.00,0.0056
3870.00,0.0056
3869.00,0.0056
3868.00,0.0057
3867.00,0.0058
3866.00,0.0058
3865.00,0.0057
3864.00,0.0056
3863.00,0.0055
3862.00,0.0056
3861.00,0.0056
3860.00,0.0056
3859.00,0.0056
3858.00,0.0056
3857.00,0.0056
3856.00,0.0056
3855.00,0.0057
3854.00,0.0056
3853.00,0.0056
3852.00,0.0056
3851.00,0.0056
3850.00,0.0056
3849.00,0.0056
3848.00,0.0056
3847.00,0.0055
3846.00,0.0055
3845.00,0.0054
3844.00,0.0054
3843.00,0.0054
3842.00,0.0054
3841.00,0.0054
3840.00,0.0054
3839.00,0.0054
3838.00,0.0054
3837.00,0.0054
3836.00,0.0054
3835.00,0.0054
3834.00,0.0054
3833.00,0.0054
3832.00,0.0055
3831.00,0.0055
3830.00,0.0055
3829.00,0.0054
3828.00,0.0053
3827.00,0.0053
3826.00,0.0052
3825.00,0.0053
3824.00,0.0054
3823.00,0.0055
3822.00,0.0054
3821.00,0.0054
3820.00,0.0054
3819.00,0.0054
3818.00,0.0054
3817.00,0.0053
3816.00,0.0052
3815.00,0.0051
3814.00,0.0052
3813.00,0.0053
3812.00,0.0053
3811.00,0.0052
3810.00,0.0052
3809.00,0.0052
3808.00,0.0053
3807.00,0.0053
3806.00,0.0054
3805.00,0.0054
3804.00,0.0054
3803.00,0.0053
3802.00,0.0052
3801.00,0.0051
3800.00,0.0052
3799.00,0.0052
3798.00,0.0052
3797.00,0.0051
3796.00,0.0051
3795.00,0.0051
3794.00,0.0051
3793.00,0.0051
3792.00,0.0051
3791.00,0.0051
3790.00,0.0051
3789.00,0.0052
3788.00,0.0052
3787.00,0.0052
3786.00,0.0051
3785.00,0.0051
3784.00,0.0051
3783.00,0.0051
3782.00,0.0051
3781.00,0.0050
3780.00,0.0050
3779.00,0.0049
3778.00,0.0050
3777.00,0.0050
3776.00,0.0050
3775.00,0.0051
3774.00,0.0051
3773.00,0.0051
3772.00,0.0052
3771.00,0.0052
3770.00,0.0052
3769.00,0.0052
3768.00,0.0052
3767.00,0.0052
3766.00,0.0052
3765.00,0.0052
3764.00,0.0052
3763.00,0.0052
3762.00,0.0052
3761.00,0.0052
3760.00,0.0052
3759.00,0.0051
3758.00,0.0052
3757.00,0.0052
3756.00,0.0052
3755.00,0.0053
3754.00,0.0054
3753.00,0.0054
3752.00,0.0056
3751.00,0.0056
3750.00,0.0057
3749.00,0.0057
3748.00,0.0056
3747.00,0.0056
3746.00,0.0055
3745.00,0.0055
3744.00,0.0055
3743.00,0.0055
3742.00,0.0055
3741.00,0.0056
3740.00,0.0056
3739.00,0.0056
3738.00,0.0057
3737.00,0.0057
3736.00,0.0057
3735.00,0.0056
3734.00,0.0055
3733.00,0.0055
3732.00,0.0055
3731.00,0.0054
3730.00,0.0054
3729.00,0.0054
3728.00,0.0054
3727.00,0.0054
3726.00,0.0053
3725.00,0.0052
3724.00,0.0052
3723.00,0.0051
3722.00,0.0051
3721.00,0.0051
3720.00,0.0050
3719.00,0.0050
3718.00,0.0050
3717.00,0.0050
3716.00,0.0051
3715.00,0.0052
3714.00,0.0053
3713.00,0.0053
3712.00,0.0053
3711.00,0.0053
3710.00,0.0053
3709.00,0.0053
3708.00,0.0053
3707.00,0.0052
3706.00,0.0052
3705.00,0.0051
3704.00,0.0051
3703.00,0.0050
3702.00,0.0050
3701.00,0.0050
3700.00,0.0051
3699.00,0.0051
3698.00,0.0052
3697.00,0.0051
3696.00,0.0051
3695.00,0.0051
3694.00,0.0051
3693.00,0.0051
3692.00,0.0052
3691.00,0.0052
3690.00,0.0052
3689.00,0.0053
3688.00,0.0053
3687.00,0.0054
3686.00,0.0054
3685.00,0.0054
3684.00,0.0055
3683.00,0.0055
3682.00,0.0055
3681.00,0.0055
3680.00,0.0055
3679.00,0.0055
3678.00,0.0056
3677.00,0.0056
3676.00,0.0056
3675.00,0.0057
3674.00,0.0059
3673.00,0.0061
3672.00,0.0061
3671.00,0.0060
3670.00,0.0059
3669.00,0.0058
3668.00,0.0059
3667.00,0.0059
3666.00,0.0060
3665.00,0.0060
3664.00,0.0060
3663.00,0.0060
3662.00,0.0060
3661.00,0.0061
3660.00,0.0061
3659.00,0.0062
3658.00,0.0063
3657.00,0.0064
3656.00,0.0065
3655.00,0.0065
3654.00,0.0066
3653.00,0.0066
3652.00,0.0067
3651.00,0.0068
3650.00,0.0069
3649.00,0.0069
3648.00,0.0069
3647.00,0.0069
3646.00,0.0069
3645.00,0.0069
3644.00,0.0068
3643.00,0.0068
3642.00,0.0068
3641.00,0.0068
3640.00,0.0069
3639.00,0.0069
3638.00,0.0069
3637.00,0.0070
3636.00,0.0070
3635.00,0.0071
3634.00,0.0072
3633.00,0.0073
3632.00,0.0074
3631.00,0.0075
3630.00,0.0077
3629.00,0.0078
3628.00,0.0079
3627.00,0.0079
3626.00,0.0078
3625.00,0.0077
3624.00,0.0076
3623.00,0.0076
3622.00,0.0076
3621.00,0.0077
3620.00,0.0078
3619.00,0.0080
3618.00,0.0080
3617.00,0.0081
3616.00,0.0081
3615.00,0.0081
3614.00,0.0082
3613.00,0.0083
3612.00,0.0084
3611.00,0.0085
3610.00,0.0086
3609.00,0.0085
3608.00,0.0085
3607.00,0.0084
3606.00,0.0084
3605.00,0.0084
3604.00,0.0084
3603.00,0.0084
3602.00,0.0084
3601.00,0.0084
3600.00,0.0084
3599.00,0.0085
3598.00,0.0084
3597.00,0.0084
3596.00,0.0085
3595.00,0.0085
3594.00,0.0086
3593.00,0.0087
3592.00,0.0088
3591.00,0.0089
3590.00,0.0089
3589.00,0.0089
3588.00,0.0089
3587.00,0.0089
3586.00,0.0090
3585.00,0.0090
3584.00,0.0090
3583.00,0.0090
3582.00,0.0090
3581.00,0.0090
3580.00,0.0090
3579.00,0.0091
3578.00,0.0091
3577.00,0.0091
3576.00,0.0091
3575.00,0.0092
3574.00,0.0092
3573.00,0.0093
3572.00,0.0093
3571.00,0.0093
3570.00,0.0094
3569.00,0.0095
3568.00,0.0096
3567.00,0.0097
3566.00,0.0098
3565.00,0.0098
3564.00,0.0098
3563.00,0.0098
3562.00,0.0097
3561.00,0.0097
3560.00,0.0097
3559.00,0.0098
3558.00,0.0098
3557.00,0.0098
3556.00,0.0098
3555.00,0.0099
3554.00,0.0099
3553.00,0.0099
3552.00,0.0100
3551.00,0.0101
3550.00,0.0102
3549.00,0.0102
3548.00,0.0103
3547.00,0.0103
3546.00,0.0104
3545.00,0.0105
3544.00,0.0105
3543.00,0.0105
3542.00,0.0105
3541.00,0.0104
3540.00,0.0104
3539.00,0.0104
3538.00,0.0105
3537.00,0.0105
3536.00,0.0105
3535.00,0.0106
3534.00,0.0106
3533.00,0.0106
3532.00,0.0106
3531.00,0.0106
3530.00,0.0107
3529.00,0.0107
3528.00,0.0108
3527.00,0.0109
3526.00,0.0109
3525.00,0.0110
3524.00,0.0109
3523.00,0.0109
3522.00,0.0110
3521.00,0.0110
3520.00,0.0110
3519.00,0.0110
3518.00,0.0110
3517.00,0.0111
3516.00,0.0111
3515.00,0.0112
3514.00,0.0112
3513.00,0.0112
3512.00,0.0112
3511.00,0.0112
3510.00,0.0112
3509.00,0.0113
3508.00,0.0114
3507.00,0.0114
3506.00,0.0114
3505.00,0.0114
3504.00,0.0115
3503.00,0.0115
3502.00,0.0116
3501.00,0.0116
3500.00,0.0116
3499.00,0.0116
3498.00,0.0117
3497.00,0.0117
3496.00,0.0118
3495.00,0.0119
3494.00,0.0119
3493.00,0.0119
3492.00,0.0119
3491.00,0.0120
3490.00,0.0120
3489.00,0.0120
3488.00,0.0120
3487.00,0.0120
3486.00,0.0121
3485.00,0.0121
3484.00,0.0121
3483.00,0.0121
3482.00,0.0121
3481.00,0.0121
3480.00,0.0122
3479.00,0.0122
3478.00,0.0123
3477.00,0.0123
3476.00,0.0124
3475.00,0.0124
3474.00,0.0124
3473.00,0.0124
3472.00,0.0124
3471.00,0.0124
3470.00,0.0124
3469.00,0.0124
3468.00,0.0124
3467.00,0.0125
3466.00,0.0126
3465.00,0.0126
3464.00,0.0126
3463.00,0.0126
3462.00,0.0127
3461.00,0.0127
3460.00,0.0127
3459.00,0.0128
3458.00,0.0128
3457.00,0.0128
3456.00,0.0128
3455.00,0.0128
3454.00,0.0128
3453.00,0.0128
3452.00,0.0129
3451.00,0.0129
3450.00,0.0129
3449.00,0.0129
3448.00,0.0130
3447.00,0.0130
3446.00,0.0131
3445.00,0.0131
3444.00,0.0131
3443.00,0.0131
3442.00,0.0131
3441.00,0.0131
3440.00,0.0131
3439.00,0.0131
3438.00,0.0132
3437.00,0.0132
3436.00,0.0132
3435.00,0.0132
3434.00,0.0132
3433.00,0.0132
3432.00,0.0133
3431.00,0.0133
3430.00,0.0133
3429.00,0.0133
3428.00,0.0134
3427.00,0.0134
3426.00,0.0134
3425.00,0.0135
3424.00,0.0135
3423.00,0.0135
3422.00,0.0135
3421.00,0.0135
3420.00,0.0135
3419.00,0.0136
3418.00,0.0136
3417.00,0.0136
3416.00,0.0136
3415.00,0.0136
3414.00,0.0136
3413.00,0.0136
3412.00,0.0136
3411.00,0.0136
3410.00,0.0136
3409.00,0.0136
3408.00,0.0136
3407.00,0.0136
3406.00,0.0136
3405.00,0.0137
3404.00,0.0137
3403.00,0.0138
3402.00,0.0138
3401.00,0.0138
3400.00,0.0138
3399.00,0.0138
3398.00,0.0138
3397.00,0.0138
3396.00,0.0139
3395.00,0.0139
3394.00,0.0139
3393.00,0.0139
3392.00,0.0138
3391.00,0.0138
3390.00,0.0138
3389.00,0.0139
3388.00,0.0139
3387.00,0.0139
3386.00,0.0139
3385.00,0.0139
3384.00,0.0139
3383.00,0.0139
3382.00,0.0139
3381.00,0.0140
3380.00,0.0140
3379.00,0.0141
3378.00,0.0141
3377.00,0.0142
3376.00,0.0142
3375.00,0.0142
3374.00,0.0142
3373.00,0.0141
3372.00,0.0141
3371.00,0.0141
3370.00,0.0141
3369.00,0.0141
3368.00,0.0141
3367.00,0.0141
3366.00,0.0142
3365.00,0.0143
3364.00,0.0143
3363.00,0.0143
3362.00,0.0143
3361.00,0.0143
3360.00,0.0143
3359.00,0.0143
3358.00,0.0142
3357.00,0.0142
3356.00,0.0142
3355.00,0.0143
3354.00,0.0143
3353.00,0.0143
3352.00,0.0144
3351.00,0.0144
3350.00,0.0144
3349.00,0.0144
3348.00,0.0143
3347.00,0.0143
3346.00,0.0143
3345.00,0.0143
3344.00,0.0143
3343.00,0.0144
3342.00,0.0144
3341.00,0.0144
3340.00,0.0144
3339.00,0.0144
3338.00,0.0144
3337.00,0.0144
3336.00,0.0144
3335.00,0.0143
3334.00,0.0143
3333.00,0.0143
3332.00,0.0143
3331.00,0.0144
3330.00,0.0144
3329.00,0.0145
3328.00,0.0145
3327.00,0.0145
3326.00,0.0145
3325.00,0.0145
3324.00,0.0145
3323.00,0.0145
3322.00,0.0144
3321.00,0.0144
3320.00,0.0144
3319.00,0.0144
3318.00,0.0144
3317.00,0.0144
3316.00,0.0144
3315.00,0.0144
3314.00,0.0144
3313.00,0.0144
3312.00,0.0144
3311.00,0.0144
3310.00,0.0144
3309.00,0.0145
3308.00,0.0145
3307.00,0.0145
3306.00,0.0145
3305.00,0.0144
3304.00,0.0144
3303.00,0.0145
3302.00,0.0145
3301.00,0.0145
3300.00,0.0146
3299.00,0.0145
3298.00,0.0145
3297.00,0.0145
3296.00,0.0145
3295.00,0.0145
3294.00,0.0145
3293.00,0.0145
3292.00,0.0145
3291.00,0.0145
3290.00,0.0145
3289.00,0.0145
3288.00,0.0145
3287.00,0.0145
3286.00,0.0145
3285.00,0.0145
3284.00,0.0145
3283.00,0.0145
3282.00,0.0145
3281.00,0.0145
3280.00,0.0145
3279.00,0.0145
3278.00,0.0145
3277.00,0.0145
3276.00,0.0145
3275.00,0.0145
3274.00,0.0145
3273.00,0.0145
3272.00,0.0145
3271.00,0.0145
3270.00,0.0145
3269.00,0.0145
3268.00,0.0144
3267.00,0.0144
3266.00,0.0144
3265.00,0.0144
3264.00,0.0144
3263.00,0.0144
3262.00,0.0144
3261.00,0.0145
3260.00,0.0145
3259.00,0.0145
3258.00,0.0144
3257.00,0.0144
3256.00,0.0145
3255.00,0.0145
3254.00,0.0145
3253.00,0.0144
3252.00,0.0144
3251.00,0.0144
3250.00,0.0144
3249.00,0.0145
3248.00,0.0145
3247.00,0.0145
3246.00,0.0145
3245.00,0.0145
3244.00,0.0145
3243.00,0.0145
3242.00,0.0145
3241.00,0.0145
3240.00,0.0145
3239.00,0.0145
3238.00,0.0145
3237.00,0.0145
3236.00,0.0144
3235.00,0.0144
3234.00,0.0144
3233.00,0.0144
3232.00,0.0144
3231.00,0.0144
3230.00,0.0144
3229.00,0.0144
3228.00,0.0144
3227.00,0.0144
3226.00,0.0144
3225.00,0.0144
3224.00,0.0144
3223.00,0.0144
3222.00,0.0144
3221.00,0.0144
3220.00,0.0144
3219.00,0.0144
3218.00,0.0144
3217.00,0.0144
3216.00,0.0144
3215.00,0.0143
3214.00,0.0143
3213.00,0.0143
3212.00,0.0143
3211.00,0.0143
3210.00,0.0143
3209.00,0.0144
3208.00,0.0144
3207.00,0.0144
3206.00,0.0143
3205.00,0.0143
3204.00,0.0143
3203.00,0.0143
3202.00,0.0143
3201.00,0.0143
3200.00,0.0143
3199.00,0.0143
3198.00,0.0143
3197.00,0.0143
3196.00,0.0143
3195.00,0.0142
3194.00,0.0142
3193.00,0.0142
3192.00,0.0143
3191.00,0.0142
3190.00,0.0142
3189.00,0.0142
3188.00,0.0142
3187.00,0.0142
3186.00,0.0142
3185.00,0.0143
3184.00,0.0143
3183.00,0.0142
3182.00,0.0142
3181.00,0.0141
3180.00,0.0141
3179.00,0.0141
3178.00,0.0141
3177.00,0.0141
3176.00,0.0141
3175.00,0.0141
3174.00,0.0141
3173.00,0.0141
3172.00,0.0141
3171.00,0.0141
3170.00,0.0140
3169.00,0.0140
3168.00,0.0140
3167.00,0.0140
3166.00,0.0139
3165.00,0.0139
3164.00,0.0139
3163.00,0.0139
3162.00,0.0139
3161.00,0.0139
3160.00,0.0139
3159.00,0.0139
3158.00,0.0139
3157.00,0.0138
3156.00,0.0138
3155.00,0.0138
3154.00,0.0138
3153.00,0.0138
3152.00,0.0138
3151.00,0.0138
3150.00,0.0138
3149.00,0.0138
3148.00,0.0138
3147.00,0.0137
3146.00,0.0137
3145.00,0.0137
3144.00,0.0137
3143.00,0.0136
3142.00,0.0136
3141.00,0.0136
3140.00,0.0136
3139.00,0.0137
3138.00,0.0137
3137.00,0.0137
3136.00,0.0137
3135.00,0.0136
3134.00,0.0136
3133.00,0.0136
3132.00,0.0136
3131.00,0.0136
3130.00,0.0136
3129.00,0.0136
3128.00,0.0135
3127.00,0.0135
3126.00,0.0135
3125.00,0.0135
3124.00,0.0134
3123.00,0.0134
3122.00,0.0134
3121.00,0.0135
3120.00,0.0135
3119.00,0.0135
3118.00,0.0135
3117.00,0.0135
3116.00,0.0135
3115.00,0.0134
3114.00,0.0134
3113.00,0.0134
3112.00,0.0134
3111.00,0.0134
3110.00,0.0134
3109.00,0.0134
3108.00,0.0134
3107.00,0.0134
3106.00,0.0134
3105.00,0.0134
3104.00,0.0134
3103.00,0.0134
3102.00,0.0134
3101.00,0.0134
3100.00,0.0133
3099.00,0.0133
3098.00,0.0133
3097.00,0.0132
3096.00,0.0132
3095.00,0.0133
3094.00,0.0133
3093.00,0.0133
3092.00,0.0133
3091.00,0.0133
3090.00,0.0133
3089.00,0.0133
3088.00,0.0132
3087.00,0.0132
3086.00,0.0132
3085.00,0.0132
3084.00,0.0132
3083.00,0.0132
3082.00,0.0132
3081.00,0.0132
3080.00,0.0132
3079.00,0.0132
3078.00,0.0132
3077.00,0.0131
3076.00,0.0131
3075.00,0.0131
3074.00,0.0131
3073.00,0.0131
3072.00,0.0131
3071.00,0.0131
3070.00,0.0131
3069.00,0.0131
3068.00,0.0131
3067.00,0.0131
3066.00,0.0131
3065.00,0.0131
3064.00,0.0131
3063.00,0.0131
3062.00,0.0130
3061.00,0.0130
3060.00,0.0130
3059.00,0.0130
3058.00,0.0130
3057.00,0.0130
3056.00,0.0130
3055.00,0.0130
3054.00,0.0129
3053.00,0.0129
3052.00,0.0129
3051.00,0.0129
3050.00,0.0129
3049.00,0.0129
3048.00,0.0129
3047.00,0.0129
3046.00,0.0129
3045.00,0.0129
3044.00,0.0129
3043.00,0.0129
3042.00,0.0129
3041.00,0.0128
3040.00,0.0128
3039.00,0.0128
3038.00,0.0128
3037.00,0.0128
3036.00,0.0128
3035.00,0.0128
3034.00,0.0128
3033.00,0.0127
3032.00,0.0127
3031.00,0.0127
3030.00,0.0127
3029.00,0.0127
3028.00,0.0126
3027.00,0.0126
3026.00,0.0126
3025.00,0.0126
3024.00,0.0127
3023.00,0.0127
3022.00,0.0126
3021.00,0.0126
3020.00,0.0126
3019.00,0.0127
3018.00,0.0127
3017.00,0.0127
3016.00,0.0127
3015.00,0.0128
3014.00,0.0129
3013.00,0.0129
3012.00,0.0130
3011.00,0.0131
3010.00,0.0131
3009.00,0.0131
3008.00,0.0132
3007.00,0.0133
3006.00,0.0134
3005.00,0.0135
3004.00,0.0136
3003.00,0.0137
3002.00,0.0138
3001.00,0.0139
3000.00,0.0140
2999.00,0.0140
2998.00,0.0141
2997.00,0.0142
2996.00,0.0142
2995.00,0.0143
2994.00,0.0144
2993.00,0.0145
2992.00,0.0145
2991.00,0.0146
2990.00,0.0146
2989.00,0.0146
2988.00,0.0147
2987.00,0.0148
2986.00,0.0150
2985.00,0.0152
2984.00,0.0155
2983.00,0.0158
2982.00,0.0160
2981.00,0.0161
2980.00,0.0160
2979.00,0.0158
2978.00,0.0157
2977.00,0.0155
2976.00,0.0155
2975.00,0.0155
2974.00,0.0155
2973.00,0.0156
2972.00,0.0156
2971.00,0.0156
2970.00,0.0155
2969.00,0.0154
2968.00,0.0153
2967.00,0.0153
2966.00,0.0152
2965.00,0.0152
2964.00,0.0151
2963.00,0.0151
2962.00,0.0150
2961.00,0.0149
2960.00,0.0149
2959.00,0.0149
2958.00,0.0149
2957.00,0.0149
2956.00,0.0148
2955.00,0.0148
2954.00,0.0148
2953.00,0.0148
2952.00,0.0148
2951.00,0.0148
2950.00,0.0148
2949.00,0.0147
2948.00,0.0147
2947.00,0.0147
2946.00,0.0147
2945.00,0.0147
2944.00,0.0147
2943.00,0.0148
2942.00,0.0148
2941.00,0.0149
2940.00,0.0149
2939.00,0.0150
2938.00,0.0151
2937.00,0.0152
2936.00,0.0153
2935.00,0.0153
2934.00,0.0154
2933.00,0.0155
2932.00,0.0156
2931.00,0.0157
2930.00,0.0158
2929.00,0.0158
2928.00,0.0158
2927.00,0.0158
2926.00,0.0158
2925.00,0.0158
2924.00,0.0158
2923.00,0.0158
2922.00,0.0157
2921.00,0.0156
2920.00,0.0154
2919.00,0.0151
2918.00,0.0149
2917.00,0.0147
2916.00,0.0145
2915.00,0.0145
2914.00,0.0145
2913.00,0.0145
2912.00,0.0145
2911.00,0.0145
2910.00,0.0145
2909.00,0.0144
2908.00,0.0144
2907.00,0.0144
2906.00,0.0143
2905.00,0.0143
2904.00,0.0142
2903.00,0.0142
2902.00,0.0141
2901.00,0.0141
2900.00,0.0140
2899.00,0.0140
2898.00,0.0140
2897.00,0.0139
2896.00,0.0139
2895.00,0.0138
2894.00,0.0138
2893.00,0.0138
2892.00,0.0138
2891.00,0.0138
2890.00,0.0138
2889.00,0.0138
2888.00,0.0137
2887.00,0.0137
2886.00,0.0136
2885.00,0.0136
2884.00,0.0135
2883.00,0.0135
2882.00,0.0134
2881.00,0.0133
2880.00,0.0133
2879.00,0.0132
2878.00,0.0132
2877.00,0.0132
2876.00,0.0132
2875.00,0.0131
2874.00,0.0131
2873.00,0.0131
2872.00,0.0131
2871.00,0.0130
2870.00,0.0130
2869.00,0.0130
2868.00,0.0130
2867.00,0.0130
2866.00,0.0130
2865.00,0.0130
2864.00,0.0130
2863.00,0.0130
2862.00,0.0131
2861.00,0.0131
2860.00,0.0132
2859.00,0.0133
2858.00,0.0133
2857.00,0.0134
2856.00,0.0134
2855.00,0.0134
2854.00,0.0134
2853.00,0.0133
2852.00,0.0132
2851.00,0.0131
2850.00,0.0129
2849.00,0.0127
2848.00,0.0125
2847.00,0.0123
2846.00,0.0122
2845.00,0.0121
2844.00,0.0120
2843.00,0.0119
2842.00,0.0118
2841.00,0.0117
2840.00,0.0116
2839.00,0.0116
2838.00,0.0115
2837.00,0.0115
2836.00,0.0114
2835.00,0.0114
2834.00,0.0113
2833.00,0.0113
2832.00,0.0112
2831.00,0.0112
2830.00,0.0112
2829.00,0.0111
2828.00,0.0111
2827.00,0.0111
2826.00,0.0111
2825.00,0.0110
2824.00,0.0110
2823.00,0.0110
2822.00,0.0110
2821.00,0.0110
2820.00,0.0109
2819.00,0.0109
2818.00,0.0109
2817.00,0.0109
2816.00,0.0109
2815.00,0.0108
2814.00,0.0108
2813.00,0.0108
2812.00,0.0108
2811.00,0.0107
2810.00,0.0107
2809.00,0.0107
2808.00,0.0106
2807.00,0.0106
2806.00,0.0106
2805.00,0.0105
2804.00,0.0105
2803.00,0.0105
2802.00,0.0105
2801.00,0.0105
2800.00,0.0105
2799.00,0.0105
2798.00,0.0104
2797.00,0.0104
2796.00,0.0104
2795.00,0.0104
2794.00,0.0104
2793.00,0.0104
2792.00,0.0103
2791.00,0.0103
2790.00,0.0103
2789.00,0.0103
2788.00,0.0103
2787.00,0.0103
2786.00,0.0102
2785.00,0.0102
2784.00,0.0101
2783.00,0.0101
2782.00,0.0101
2781.00,0.0101
2780.00,0.0101
2779.00,0.0101
2778.00,0.0100
2777.00,0.0100
2776.00,0.0100
2775.00,0.0100
2774.00,0.0100
2773.00,0.0100
2772.00,0.0100
2771.00,0.0100
2770.00,0.0100
2769.00,0.0100
2768.00,0.0100
2767.00,0.0099
2766.00,0.0099
2765.00,0.0099
2764.00,0.0098
2763.00,0.0098
2762.00,0.0098
2761.00,0.0098
2760.00,0.0098
2759.00,0.0098
2758.00,0.0098
2757.00,0.0098
2756.00,0.0098
2755.00,0.0098
