Created as New Dataset,
cm-1,A
4000.00,0.0042
3999.00,0.0042
3998.00,0.0042
3997.00,0.0042
3996.00,0.0042
3995.00,0.0042
3994.00,0.0042
3993.00,0.0042
3992.00,0.0042
3991.00,0.0042
3990.00,0.0042
3989.00,0.0041
3988.00,0.0041
3987.00,0.0041
3986.00,0.0041
3985.00,0.0041
3984.00,0.0042
3983.00,0.0042
3982.00,0.0042
3981.00,0.0042
3980.00,0.0042
3979.00,0.0042
3978.00,0.0042
3977.00,0.0042
3976.00,0.0042
3975.00,0.0041
3974.00,0.0041
3973.00,0.0041
3972.00,0.0041
3971.00,0.0041
3970.00,0.0040
3969.00,0.0040
3968.00,0.0040
3967.00,0.0039
3966.00,0.0039
3965.00,0.0040
3964.00,0.0040
3963.00,0.0040
3962.00,0.0041
3961.00,0.0041
3960.00,0.0041
3959.00,0.0041
3958.00,0.0041
3957.00,0.0041
3956.00,0.0040
3955.00,0.0040
3954.00,0.0040
3953.00,0.0039
3952.00,0.0039
3951.00,0.0039
3950.00,0.0039
3949.00,0.0039
3948.00,0.0039
3947.00,0.0038
3946.00,0.0038
3945.00,0.0038
3944.00,0.0039
3943.00,0.0039
3942.00,0.0039
3941.00,0.0039
3940.00,0.0040
3939.00,0.0040
3938.00,0.0040
3937.00,0.0040
3936.00,0.0039
3935.00,0.0039
3934.00,0.0038
3933.00,0.0038
3932.00,0.0038
3931.00,0.0038
3930.00,0.0038
3929.00,0.0038
3928.00,0.0037
3927.00,0.0037
3926.00,0.0037
3925.00,0.0037
3924.00,0.0036
3923.00,0.0036
3922.00,0.0036
3921.00,0.0036
3920.00,0.0036
3919.00,0.0037
3918.00,0.0038
3917.00,0.0038
3916.00,0.0038
3915.00,0.0038
3914.00,0.0038
3913.00,0.0039
3912.00,0.0039
3911.00,0.0039
3910.00,0.0038
3909.00,0.0037
3908.00,0.0035
3907.00,0.0033
3906.00,0.0032
3905.00,0.0031
3904.00,0.0031
3903.00,0.0031
3902.00,0.0032
3901.00,0.0033
3900.00,0.0034
3899.00,0.0034
3898.00,0.0035
3897.00,0.0035
3896.00,0.0036
3895.00,0.0036
3894.00,0.0036
3893.00,0.0036
3892.00,0.0036
3891.00,0.0035
3890.00,0.0033
3889.00,0.0033
3888.00,0.0034
3887.00,0.0036
3886.00,0.0036
3885.00,0.0034
3884.00,0.0032
3883.00,0.0032
3882.00,0.0034
3881.00,0.0035
3880.00,0.0035
3879.00,0.0033
3878.00,0.0033
3877.00,0.0034
3876.00,0.0035
3875.00,0.0034
3874.00,0.0032
3873.00,0.0030
3872.00,0.0030
3871.00,0.0032
3870.00,0.0032
3869.00,0.0030
3868.00,0.0029
3867.00,0.0030
3866.00,0.0032
3865.00,0.0032
3864.00,0.0032
3863.00,0.0032
3862.00,0.0033
3861.00,0.0034
3860.00,0.0033
3859.00,0.0032
3858.00,0.0030
3857.00,0.0027
3856.00,0.0024
3855.00,0.0025
3854.00,0.0028
3853.00,0.0027
3852.00,0.0023
3851.00,0.0022
3850.00,0.0026
3849.00,0.0030
3848.00,0.0032
3847.00,0.0033
3846.00,0.0032
3845.00,0.0032
3844.00,0.0030
3843.00,0.0029
3842.00,0.0027
3841.00,0.0027
3840.00,0.0028
3839.00,0.0029
3838.00,0.0028
3837.00,0.0027
3836.00,0.0027
3835.00,0.0027
3834.00,0.0029
3833.00,0.0031
3832.00,0.0032
3831.00,0.0032
3830.00,0.0032
3829.00,0.0033
3828.00,0.0034
3827.00,0.0033
3826.00,0.0031
3825.00,0.0029
3824.00,0.0027
3823.00,0.0028
3822.00,0.0028
3821.00,0.0027
3820.00,0.0024
3819.00,0.0024
3818.00,0.0027
3817.00,0.0031
3816.00,0.0032
3815.00,0.0031
3814.00,0.0031
3813.00,0.0033
3812.00,0.0034
3811.00,0.0033
3810.00,0.0032
3809.00,0.0032
3808.00,0.0033
3807.00,0.0032
3806.00,0.0028
3805.00,0.0026
3804.00,0.0027
3803.00,0.0029
3802.00,0.0030
3801.00,0.0028
3800.00,0.0026
3799.00,0.0027
3798.00,0.0030
3797.00,0.0032
3796.00,0.0033
3795.00,0.0033
3794.00,0.0035
3793.00,0.0036
3792.00,0.0037
3791.00,0.0037
3790.00,0.0037
3789.00,0.0036
3788.00,0.0036
3787.00,0.0035
3786.00,0.0035
3785.00,0.0034
3784.00,0.0034
3783.00,0.0033
3782.00,0.0032
3781.00,0.0032
3780.00,0.0033
3779.00,0.0033
3778.00,0.0033
3777.00,0.0034
3776.00,0.0035
3775.00,0.0035
3774.00,0.0034
3773.00,0.0032
3772.00,0.0031
3771.00,0.0031
3770.00,0.0031
3769.00,0.0030
3768.00,0.0031
3767.00,0.0032
3766.00,0.0033
3765.00,0.0033
3764.00,0.0032
3763.00,0.0032
3762.00,0.0033
3761.00,0.0032
3760.00,0.0032
3759.00,0.0031
3758.00,0.0030
3757.00,0.0029
3756.00,0.0028
3755.00,0.0027
3754.00,0.0025
3753.00,0.0023
3752.00,0.0023
3751.00,0.0025
3750.00,0.0025
3749.00,0.0023
3748.00,0.0021
3747.00,0.0022
3746.00,0.0025
3745.00,0.0027
3744.00,0.0026
3743.00,0.0022
3742.00,0.0022
3741.00,0.0024
3740.00,0.0025
3739.00,0.0023
3738.00,0.0021
3737.00,0.0021
3736.00,0.0021
3735.00,0.0021
3734.00,0.0022
3733.00,0.0024
3732.00,0.0025
3731.00,0.0025
3730.00,0.0026
3729.00,0.0028
3728.00,0.0029
3727.00,0.0029
3726.00,0.0028
3725.00,0.0027
3724.00,0.0027
3723.00,0.0028
3722.00,0.0028
3721.00,0.0028
3720.00,0.0029
3719.00,0.0030
3718.00,0.0031
3717.00,0.0030
3716.00,0.0029
3715.00,0.0028
3714.00,0.0027
3713.00,0.0026
3712.00,0.0026
3711.00,0.0026
3710.00,0.0027
3709.00,0.0028
3708.00,0.0029
3707.00,0.0030
3706.00,0.0031
3705.00,0.0031
3704.00,0.0031
3703.00,0.0031
3702.00,0.0032
3701.00,0.0032
3700.00,0.0032
3699.00,0.0032
3698.00,0.0034
3697.00,0.0034
3696.00,0.0033
3695.00,0.0032
3694.00,0.0030
3693.00,0.0028
3692.00,0.0027
3691.00,0.0026
3690.00,0.0028
3689.00,0.0029
3688.00,0.0028
3687.00,0.0028
3686.00,0.0030
3685.00,0.0032
3684.00,0.0034
3683.00,0.0034
3682.00,0.0033
3681.00,0.0031
3680.00,0.0028
3679.00,0.0024
3678.00,0.0022
3677.00,0.0024
3676.00,0.0026
3675.00,0.0024
3674.00,0.0021
3673.00,0.0021
3672.00,0.0024
3671.00,0.0027
3670.00,0.0029
3669.00,0.0029
3668.00,0.0030
3667.00,0.0033
3666.00,0.0036
3665.00,0.0037
3664.00,0.0038
3663.00,0.0038
3662.00,0.0038
3661.00,0.0037
3660.00,0.0036
3659.00,0.0035
3658.00,0.0036
3657.00,0.0037
3656.00,0.0037
3655.00,0.0035
3654.00,0.0034
3653.00,0.0032
3652.00,0.0029
3651.00,0.0026
3650.00,0.0026
3649.00,0.0029
3648.00,0.0030
3647.00,0.0031
3646.00,0.0033
3645.00,0.0036
3644.00,0.0038
3643.00,0.0040
3642.00,0.0041
3641.00,0.0041
3640.00,0.0042
3639.00,0.0042
3638.00,0.0042
3637.00,0.0042
3636.00,0.0042
3635.00,0.0042
3634.00,0.0040
3633.00,0.0037
3632.00,0.0035
3631.00,0.0035
3630.00,0.0037
3629.00,0.0039
3628.00,0.0039
3627.00,0.0038
3626.00,0.0039
3625.00,0.0041
3624.00,0.0042
3623.00,0.0041
3622.00,0.0040
3621.00,0.0040
3620.00,0.0041
3619.00,0.0041
3618.00,0.0041
3617.00,0.0041
3616.00,0.0041
3615.00,0.0042
3614.00,0.0042
3613.00,0.0042
3612.00,0.0042
3611.00,0.0043
3610.00,0.0044
3609.00,0.0045
3608.00,0.0046
3607.00,0.0045
3606.00,0.0046
3605.00,0.0047
3604.00,0.0048
3603.00,0.0048
3602.00,0.0048
3601.00,0.0047
3600.00,0.0047
3599.00,0.0046
3598.00,0.0045
3597.00,0.0045
3596.00,0.0045
3595.00,0.0046
3594.00,0.0047
3593.00,0.0047
3592.00,0.0046
3591.00,0.0045
3590.00,0.0045
3589.00,0.0046
3588.00,0.0047
3587.00,0.0048
3586.00,0.0049
3585.00,0.0050
3584.00,0.0052
3583.00,0.0053
3582.00,0.0054
3581.00,0.0054
3580.00,0.0054
3579.00,0.0055
3578.00,0.0055
3577.00,0.0054
3576.00,0.0054
3575.00,0.0054
3574.00,0.0053
3573.00,0.0053
3572.00,0.0052
3571.00,0.0051
3570.00,0.0049
3569.00,0.0048
3568.00,0.0049
3567.00,0.0050
3566.00,0.0051
3565.00,0.0052
3564.00,0.0054
3563.00,0.0055
3562.00,0.0056
3561.00,0.0056
3560.00,0.0056
3559.00,0.0057
3558.00,0.0057
3557.00,0.0057
3556.00,0.0056
3555.00,0.0056
3554.00,0.0056
3553.00,0.0057
3552.00,0.0057
3551.00,0.0057
3550.00,0.0057
3549.00,0.0057
3548.00,0.0057
3547.00,0.0057
3546.00,0.0057
3545.00,0.0058
3544.00,0.0058
3543.00,0.0059
3542.00,0.0059
3541.00,0.0059
3540.00,0.0060
3539.00,0.0060
3538.00,0.0060
3537.00,0.0061
3536.00,0.0061
3535.00,0.0061
3534.00,0.0060
3533.00,0.0060
3532.00,0.0059
3531.00,0.0059
3530.00,0.0059
3529.00,0.0059
3528.00,0.0059
3527.00,0.0059
3526.00,0.0060
3525.00,0.0060
3524.00,0.0061
3523.00,0.0061
3522.00,0.0062
3521.00,0.0062
3520.00,0.0063
3519.00,0.0063
3518.00,0.0063
3517.00,0.0064
3516.00,0.0064
3515.00,0.0064
3514.00,0.0064
3513.00,0.0064
3512.00,0.0064
3511.00,0.0064
3510.00,0.0064
3509.00,0.0064
3508.00,0.0064
3507.00,0.0064
3506.00,0.0063
3505.00,0.0063
3504.00,0.0064
3503.00,0.0064
3502.00,0.0065
3501.00,0.0066
3500.00,0.0066
3499.00,0.0066
3498.00,0.0066
3497.00,0.0066
3496.00,0.0066
3495.00,0.0067
3494.00,0.0067
3493.00,0.0067
3492.00,0.0066
3491.00,0.0066
3490.00,0.0066
3489.00,0.0066
3488.00,0.0066
3487.00,0.0066
3486.00,0.0066
3485.00,0.0067
3484.00,0.0067
3483.00,0.0068
3482.00,0.0068
3481.00,0.0068
3480.00,0.0069
3479.00,0.0069
3478.00,0.0069
3477.00,0.0070
3476.00,0.0070
3475.00,0.0070
3474.00,0.0069
3473.00,0.0070
3472.00,0.0070
3471.00,0.0070
3470.00,0.0070
3469.00,0.0070
3468.00,0.0070
3467.00,0.0070
3466.00,0.0070
3465.00,0.0071
3464.00,0.0071
3463.00,0.0071
3462.00,0.0071
3461.00,0.0070
3460.00,0.0070
3459.00,0.0070
3458.00,0.0070
3457.00,0.0071
3456.00,0.0071
3455.00,0.0072
3454.00,0.0072
3453.00,0.0072
3452.00,0.0072
3451.00,0.0072
3450.00,0.0072
3449.00,0.0071
3448.00,0.0071
3447.00,0.0071
3446.00,0.0070
3445.00,0.0070
3444.00,0.0071
3443.00,0.0071
3442.00,0.0071
3441.00,0.0071
3440.00,0.0071
3439.00,0.0071
3438.00,0.0071
3437.00,0.0071
3436.00,0.0071
3435.00,0.0072
3434.00,0.0072
3433.00,0.0072
3432.00,0.0072
3431.00,0.0072
3430.00,0.0072
3429.00,0.0072
3428.00,0.0072
3427.00,0.0072
3426.00,0.0072
3425.00,0.0073
3424.00,0.0072
3423.00,0.0072
3422.00,0.0072
3421.00,0.0072
3420.00,0.0073
3419.00,0.0073
3418.00,0.0073
3417.00,0.0074
3416.00,0.0074
3415.00,0.0074
3414.00,0.0074
3413.00,0.0074
3412.00,0.0074
3411.00,0.0074
3410.00,0.0074
3409.00,0.0074
3408.00,0.0074
3407.00,0.0075
3406.00,0.0075
3405.00,0.0076
3404.00,0.0076
3403.00,0.0076
3402.00,0.0076
3401.00,0.0075
3400.00,0.0075
3399.00,0.0074
3398.00,0.0075
3397.00,0.0075
3396.00,0.0075
3395.00,0.0075
3394.00,0.0075
3393.00,0.0075
3392.00,0.0075
3391.00,0.0075
3390.00,0.0075
3389.00,0.0075
3388.00,0.0074
3387.00,0.0074
3386.00,0.0075
3385.00,0.0075
3384.00,0.0075
3383.00,0.0075
3382.00,0.0075
3381.00,0.0075
3380.00,0.0075
3379.00,0.0075
3378.00,0.0075
3377.00,0.0075
3376.00,0.0075
3375.00,0.0075
3374.00,0.0075
3373.00,0.0076
3372.00,0.0076
3371.00,0.0076
3370.00,0.0076
3369.00,0.0076
3368.00,0.0075
3367.00,0.0076
3366.00,0.0076
3365.00,0.0077
3364.00,0.0077
3363.00,0.0077
3362.00,0.0077
3361.00,0.0077
3360.00,0.0076
3359.00,0.0076
3358.00,0.0076
3357.00,0.0077
3356.00,0.0077
3355.00,0.0077
3354.00,0.0077
3353.00,0.0076
3352.00,0.0076
3351.00,0.0076
3350.00,0.0076
3349.00,0.0076
3348.00,0.0076
3347.00,0.0076
3346.00,0.0076
3345.00,0.0076
3344.00,0.0076
3343.00,0.0076
3342.00,0.0076
3341.00,0.0076
3340.00,0.0076
3339.00,0.0076
3338.00,0.0076
3337.00,0.0077
3336.00,0.0077
3335.00,0.0077
3334.00,0.0077
3333.00,0.0077
3332.00,0.0077
3331.00,0.0077
3330.00,0.0077
3329.00,0.0077
3328.00,0.0077
3327.00,0.0077
3326.00,0.0077
3325.00,0.0077
3324.00,0.0078
3323.00,0.0078
3322.00,0.0078
3321.00,0.0078
3320.00,0.0077
3319.00,0.0077
3318.00,0.0077
3317.00,0.0076
3316.00,0.0077
3315.00,0.0077
3314.00,0.0077
3313.00,0.0076
3312.00,0.0076
3311.00,0.0076
3310.00,0.0076
3309.00,0.0077
3308.00,0.0077
3307.00,0.0077
3306.00,0.0078
3305.00,0.0078
3304.00,0.0078
3303.00,0.0078
3302.00,0.0078
3301.00,0.0077
3300.00,0.0077
3299.00,0.0077
3298.00,0.0077
3297.00,0.0077
3296.00,0.0077
3295.00,0.0077
3294.00,0.0077
3293.00,0.0077
3292.00,0.0077
3291.00,0.0078
3290.00,0.0078
3289.00,0.0078
3288.00,0.0078
3287.00,0.0077
3286.00,0.0077
3285.00,0.0077
3284.00,0.0078
3283.00,0.0077
3282.00,0.0077
3281.00,0.0077
3280.00,0.0077
3279.00,0.0077
3278.00,0.0077
3277.00,0.0077
3276.00,0.0077
3275.00,0.0077
3274.00,0.0077
3273.00,0.0077
3272.00,0.0078
3271.00,0.0078
3270.00,0.0078
3269.00,0.0078
3268.00,0.0078
3267.00,0.0078
3266.00,0.0077
3265.00,0.0077
3264.00,0.0077
3263.00,0.0077
3262.00,0.0077
3261.00,0.0077
3260.00,0.0078
3259.00,0.0078
3258.00,0.0078
3257.00,0.0078
3256.00,0.0078
3255.00,0.0078
3254.00,0.0077
3253.00,0.0077
3252.00,0.0077
3251.00,0.0077
3250.00,0.0077
3249.00,0.0077
3248.00,0.0078
3247.00,0.0078
3246.00,0.0079
3245.00,0.0079
3244.00,0.0079
3243.00,0.0078
3242.00,0.0078
3241.00,0.0078
3240.00,0.0078
3239.00,0.0078
3238.00,0.0078
3237.00,0.0078
3236.00,0.0078
3235.00,0.0078
3234.00,0.0078
3233.00,0.0079
3232.00,0.0079
3231.00,0.0080
3230.00,0.0080
3229.00,0.0079
3228.00,0.0079
3227.00,0.0079
3226.00,0.0079
3225.00,0.0080
3224.00,0.0080
3223.00,0.0080
3222.00,0.0080
3221.00,0.0080
3220.00,0.0079
3219.00,0.0079
3218.00,0.0079
3217.00,0.0079
3216.00,0.0078
3215.00,0.0078
3214.00,0.0078
3213.00,0.0079
3212.00,0.0079
3211.00,0.0079
3210.00,0.0080
3209.00,0.0079
3208.00,0.0079
3207.00,0.0080
3206.00,0.0080
3205.00,0.0080
3204.00,0.0080
3203.00,0.0080
3202.00,0.0080
3201.00,0.0080
3200.00,0.0080
3199.00,0.0080
3198.00,0.0080
3197.00,0.0080
3196.00,0.0080
3195.00,0.0079
3194.00,0.0079
3193.00,0.0079
3192.00,0.0079
3191.00,0.0079
3190.00,0.0079
3189.00,0.0079
3188.00,0.0079
3187.00,0.0079
3186.00,0.0080
3185.00,0.0080
3184.00,0.0080
3183.00,0.0080
3182.00,0.0080
3181.00,0.0080
3180.00,0.0080
3179.00,0.0080
3178.00,0.0080
3177.00,0.0080
3176.00,0.0080
3175.00,0.0080
3174.00,0.0080
3173.00,0.0080
3172.00,0.0080
3171.00,0.0080
3170.00,0.0080
3169.00,0.0080
3168.00,0.0079
3167.00,0.0079
3166.00,0.0080
3165.00,0.0080
3164.00,0.0080
3163.00,0.0080
3162.00,0.0080
3161.00,0.0080
3160.00,0.0080
3159.00,0.0080
3158.00,0.0080
3157.00,0.0080
3156.00,0.0080
3155.00,0.0079
3154.00,0.0079
3153.00,0.0079
3152.00,0.0079
3151.00,0.0079
3150.00,0.0079
3149.00,0.0079
3148.00,0.0079
3147.00,0.0079
3146.00,0.0079
3145.00,0.0080
3144.00,0.0080
3143.00,0.0080
3142.00,0.0080
3141.00,0.0080
3140.00,0.0080
3139.00,0.0080
3138.00,0.0080
3137.00,0.0080
3136.00,0.0079
3135.00,0.0079
3134.00,0.0079
3133.00,0.0079
3132.00,0.0079
3131.00,0.0079
3130.00,0.0080
3129.00,0.0080
3128.00,0.0080
3127.00,0.0080
3126.00,0.0080
3125.00,0.0080
3124.00,0.0080
3123.00,0.0080
3122.00,0.0079
3121.00,0.0079
3120.00,0.0078
3119.00,0.0078
3118.00,0.0078
3117.00,0.0079
3116.00,0.0079
3115.00,0.0080
3114.00,0.0080
3113.00,0.0081
3112.00,0.0080
3111.00,0.0080
3110.00,0.0079
3109.00,0.0079
3108.00,0.0079
3107.00,0.0079
3106.00,0.0079
3105.00,0.0079
3104.00,0.0080
3103.00,0.0080
3102.00,0.0079
3101.00,0.0079
3100.00,0.0079
3099.00,0.0079
3098.00,0.0080
3097.00,0.0080
3096.00,0.0080
3095.00,0.0080
3094.00,0.0080
3093.00,0.0080
3092.00,0.0080
3091.00,0.0080
3090.00,0.0080
3089.00,0.0080
3088.00,0.0081
3087.00,0.0081
3086.00,0.0080
3085.00,0.0080
3084.00,0.0080
3083.00,0.0079
3082.00,0.0080
3081.00,0.0080
3080.00,0.0080
3079.00,0.0080
3078.00,0.0080
3077.00,0.0080
3076.00,0.0080
3075.00,0.0080
3074.00,0.0079
3073.00,0.0079
3072.00,0.0080
3071.00,0.0080
3070.00,0.0080
3069.00,0.0080
3068.00,0.0079
3067.00,0.0079
3066.00,0.0079
3065.00,0.0080
3064.00,0.0080
3063.00,0.0080
3062.00,0.0081
3061.00,0.0080
3060.00,0.0080
3059.00,0.0080
3058.00,0.0080
3057.00,0.0080
3056.00,0.0080
3055.00,0.0080
3054.00,0.0081
3053.00,0.0081
3052.00,0.0081
3051.00,0.0080
3050.00,0.0080
3049.00,0.0079
3048.00,0.0079
3047.00,0.0079
3046.00,0.0079
3045.00,0.0079
3044.00,0.0080
3043.00,0.0080
3042.00,0.0080
3041.00,0.0080
3040.00,0.0080
3039.00,0.0080
3038.00,0.0080
3037.00,0.0080
3036.00,0.0080
3035.00,0.0079
3034.00,0.0079
3033.00,0.0080
3032.00,0.0080
3031.00,0.0080
3030.00,0.0080
3029.00,0.0080
3028.00,0.0079
3027.00,0.0079
3026.00,0.0079
3025.00,0.0079
3024.00,0.0078
3023.00,0.0078
3022.00,0.0078
3021.00,0.0079
3020.00,0.0079
3019.00,0.0079
3018.00,0.0078
3017.00,0.0078
3016.00,0.0078
3015.00,0.0078
3014.00,0.0078
3013.00,0.0078
3012.00,0.0079
3011.00,0.0079
3010.00,0.0079
3009.00,0.0079
3008.00,0.0078
3007.00,0.0078
3006.00,0.0078
3005.00,0.0078
3004.00,0.0078
3003.00,0.0078
3002.00,0.0078
3001.00,0.0078
3000.00,0.0078
2999.00,0.0078
2998.00,0.0077
2997.00,0.0077
2996.00,0.0077
2995.00,0.0077
2994.00,0.0077
2993.00,0.0077
2992.00,0.0077
2991.00,0.0077
2990.00,0.0076
2989.00,0.0076
2988.00,0.0076
2987.00,0.0076
2986.00,0.0076
2985.00,0.0076
2984.00,0.0076
2983.00,0.0076
2982.00,0.0075
2981.00,0.0075
2980.00,0.0075
2979.00,0.0075
2978.00,0.0075
2977.00,0.0075
2976.00,0.0075
2975.00,0.0075
2974.00,0.0074
2973.00,0.0074
2972.00,0.0073
2971.00,0.0073
2970.00,0.0072
2969.00,0.0072
2968.00,0.0071
2967.00,0.0071
2966.00,0.0071
2965.00,0.0070
2964.00,0.0070
2963.00,0.0069
2962.00,0.0069
2961.00,0.0069
2960.00,0.0069
2959.00,0.0069
2958.00,0.0069
2957.00,0.0068
2956.00,0.0068
2955.00,0.0068
2954.00,0.0068
2953.00,0.0069
2952.00,0.0069
2951.00,0.0069
2950.00,0.0069
2949.00,0.0069
2948.00,0.0069
2947.00,0.0069
2946.00,0.0069
2945.00,0.0069
2944.00,0.0068
2943.00,0.0068
2942.00,0.0067
2941.00,0.0067
2940.00,0.0066
2939.00,0.0065
2938.00,0.0065
2937.00,0.0064
2936.00,0.0063
2935.00,0.0062
2934.00,0.0061
2933.00,0.0060
2932.00,0.0059
2931.00,0.0059
2930.00,0.0058
2929.00,0.0057
2928.00,0.0056
2927.00,0.0055
2926.00,0.0055
2925.00,0.0054
2924.00,0.0054
2923.00,0.0054
2922.00,0.0055
2921.00,0.0056
2920.00,0.0057
2919.00,0.0057
2918.00,0.0058
2917.00,0.0058
2916.00,0.0059
2915.00,0.0060
2914.00,0.0061
2913.00,0.0062
2912.00,0.0063
2911.00,0.0064
2910.00,0.0064
2909.00,0.0065
2908.00,0.0065
2907.00,0.0066
2906.00,0.0066
2905.00,0.0066
2904.00,0.0066
2903.00,0.0066
2902.00,0.0067
2901.00,0.0067
2900.00,0.0067
2899.00,0.0067
2898.00,0.0067
2897.00,0.0067
2896.00,0.0067
2895.00,0.0067
2894.00,0.0068
2893.00,0.0068
2892.00,0.0068
2891.00,0.0069
2890.00,0.0069
2889.00,0.0069
2888.00,0.0069
2887.00,0.0070
2886.00,0.0070
2885.00,0.0070
2884.00,0.0070
2883.00,0.0071
2882.00,0.0071
2881.00,0.0071
2880.00,0.0071
2879.00,0.0071
2878.00,0.0070
2877.00,0.0070
2876.00,0.0070
2875.00,0.0069
2874.00,0.0068
2873.00,0.0068
2872.00,0.0067
2871.00,0.0067
2870.00,0.0067
2869.00,0.0067
2868.00,0.0067
2867.00,0.0067
2866.00,0.0067
2865.00,0.0066
2864.00,0.0066
2863.00,0.0065
2862.00,0.0065
2861.00,0.0065
2860.00,0.0065
2859.00,0.0064
2858.00,0.0063
2857.00,0.0062
2856.00,0.0062
2855.00,0.0061
2854.00,0.0061
2853.00,0.0061
2852.00,0.0061
2851.00,0.0061
2850.00,0.0062
2849.00,0.0063
2848.00,0.0063
2847.00,0.0064
2846.00,0.0065
2845.00,0.0066
2844.00,0.0066
2843.00,0.0067
2842.00,0.0068
2841.00,0.0068
2840.00,0.0069
2839.00,0.0070
2838.00,0.0071
2837.00,0.0071
2836.00,0.0071
2835.00,0.0071
2834.00,0.0071
2833.00,0.0071
2832.00,0.0071
2831.00,0.0072
2830.00,0.0072
2829.00,0.0072
2828.00,0.0071
2827.00,0.0071
2826.00,0.0072
2825.00,0.0071
2824.00,0.0071
2823.00,0.0071
2822.00,0.0071
2821.00,0.0071
2820.00,0.0071
2819.00,0.0071
2818.00,0.0071
2817.00,0.0071
2816.00,0.0070
2815.00,0.0070
2814.00,0.0070
2813.00,0.0070
2812.00,0.0070
2811.00,0.0070
2810.00,0.0070
2809.00,0.0070
2808.00,0.0070
2807.00,0.0070
2806.00,0.0070
2805.00,0.0070
2804.00,0.0071
2803.00,0.0071
2802.00,0.0071
2801.00,0.0071
2800.00,0.0070
2799.00,0.0070
2798.00,0.0070
2797.00,0.0070
2796.00,0.0070
2795.00,0.0070
2794.00,0.0070
2793.00,0.0069
2792.00,0.0069
2791.00,0.0069
2790.00,0.0070
2789.00,0.0070
2788.00,0.0070
2787.00,0.0070
2786.00,0.0070
2785.00,0.0069
2784.00,0.0069
2783.00,0.0069
2782.00,0.0069
2781.00,0.0069
2780.00,0.0069
2779.00,0.0069
2778.00,0.0069
2777.00,0.0069
2776.00,0.0069
2775.00,0.0069
2774.00,0.0069
2773.00,0.0069
2772.00,0.0069
2771.00,0.0069
2770.00,0.0069
2769.00,0.0069
2768.00,0.0069
2767.00,0.0068
2766.00,0.0068
2765.00,0.0068
2764.00,0.0069
2763.00,0.0069
2762.00,0.0069
2761.00,0.0068
2760.00,0.0068
2759.00,0.0068
2758.00,0.0068
2757.00,0.0068
2756.00,0.0068
2755.00,0.0068
2754.00,0.0068
