Created as New Dataset,Monday, April 03 2023
cm-1,A
4000.00,0.0320
3999.00,0.0320
3998.00,0.0319
3997.00,0.0319
3996.00,0.0319
3995.00,0.0319
3994.00,0.0319
3993.00,0.0319
3992.00,0.0318
3991.00,0.0318
3990.00,0.0318
3989.00,0.0318
3988.00,0.0319
3987.00,0.0319
3986.00,0.0319
3985.00,0.0319
3984.00,0.0318
3983.00,0.0317
3982.00,0.0317
3981.00,0.0316
3980.00,0.0316
3979.00,0.0317
3978.00,0.0317
3977.00,0.0317
3976.00,0.0317
3975.00,0.0316
3974.00,0.0316
3973.00,0.0316
3972.00,0.0316
3971.00,0.0315
3970.00,0.0315
3969.00,0.0315
3968.00,0.0315
3967.00,0.0315
3966.00,0.0315
3965.00,0.0315
3964.00,0.0315
3963.00,0.0315
3962.00,0.0314
3961.00,0.0314
3960.00,0.0314
3959.00,0.0314
3958.00,0.0314
3957.00,0.0314
3956.00,0.0314
3955.00,0.0313
3954.00,0.0313
3953.00,0.0313
3952.00,0.0313
3951.00,0.0313
3950.00,0.0313
3949.00,0.0312
3948.00,0.0311
3947.00,0.0311
3946.00,0.0311
3945.00,0.0311
3944.00,0.0311
3943.00,0.0311
3942.00,0.0310
3941.00,0.0310
3940.00,0.0310
3939.00,0.0311
3938.00,0.0311
3937.00,0.0311
3936.00,0.0311
3935.00,0.0312
3934.00,0.0312
3933.00,0.0311
3932.00,0.0310
3931.00,0.0309
3930.00,0.0309
3929.00,0.0309
3928.00,0.0308
3927.00,0.0308
3926.00,0.0308
3925.00,0.0307
3924.00,0.0307
3923.00,0.0306
3922.00,0.0307
3921.00,0.0307
3920.00,0.0307
3919.00,0.0308
3918.00,0.0307
3917.00,0.0307
3916.00,0.0306
3915.00,0.0306
3914.00,0.0306
3913.00,0.0306
3912.00,0.0306
3911.00,0.0306
3910.00,0.0306
3909.00,0.0306
3908.00,0.0306
3907.00,0.0306
3906.00,0.0305
3905.00,0.0305
3904.00,0.0304
3903.00,0.0303
3902.00,0.0303
3901.00,0.0303
3900.00,0.0303
3899.00,0.0302
3898.00,0.0303
3897.00,0.0303
3896.00,0.0304
3895.00,0.0305
3894.00,0.0305
3893.00,0.0304
3892.00,0.0304
3891.00,0.0303
3890.00,0.0303
3889.00,0.0303
3888.00,0.0304
3887.00,0.0304
3886.00,0.0303
3885.00,0.0302
3884.00,0.0302
3883.00,0.0303
3882.00,0.0302
3881.00,0.0301
3880.00,0.0300
3879.00,0.0300
3878.00,0.0301
3877.00,0.0302
3876.00,0.0302
3875.00,0.0302
3874.00,0.0301
3873.00,0.0301
3872.00,0.0301
3871.00,0.0301
3870.00,0.0300
3869.00,0.0299
3868.00,0.0299
3867.00,0.0300
3866.00,0.0300
3865.00,0.0299
3864.00,0.0298
3863.00,0.0298
3862.00,0.0298
3861.00,0.0299
3860.00,0.0299
3859.00,0.0299
3858.00,0.0299
3857.00,0.0298
3856.00,0.0298
3855.00,0.0299
3854.00,0.0300
3853.00,0.0299
3852.00,0.0298
3851.00,0.0298
3850.00,0.0299
3849.00,0.0299
3848.00,0.0298
3847.00,0.0298
3846.00,0.0298
3845.00,0.0298
3844.00,0.0298
3843.00,0.0297
3842.00,0.0297
3841.00,0.0297
3840.00,0.0296
3839.00,0.0296
3838.00,0.0295
3837.00,0.0295
3836.00,0.0295
3835.00,0.0295
3834.00,0.0295
3833.00,0.0295
3832.00,0.0295
3831.00,0.0295
3830.00,0.0296
3829.00,0.0296
3828.00,0.0296
3827.00,0.0295
3826.00,0.0294
3825.00,0.0294
3824.00,0.0294
3823.00,0.0294
3822.00,0.0294
3821.00,0.0293
3820.00,0.0292
3819.00,0.0293
3818.00,0.0294
3817.00,0.0294
3816.00,0.0292
3815.00,0.0292
3814.00,0.0292
3813.00,0.0292
3812.00,0.0292
3811.00,0.0291
3810.00,0.0291
3809.00,0.0291
3808.00,0.0291
3807.00,0.0291
3806.00,0.0291
3805.00,0.0292
3804.00,0.0293
3803.00,0.0292
3802.00,0.0292
3801.00,0.0290
3800.00,0.0290
3799.00,0.0290
3798.00,0.0290
3797.00,0.0289
3796.00,0.0288
3795.00,0.0288
3794.00,0.0288
3793.00,0.0288
3792.00,0.0288
3791.00,0.0287
3790.00,0.0287
3789.00,0.0288
3788.00,0.0288
3787.00,0.0288
3786.00,0.0288
3785.00,0.0288
3784.00,0.0287
3783.00,0.0286
3782.00,0.0286
3781.00,0.0286
3780.00,0.0285
3779.00,0.0284
3778.00,0.0284
3777.00,0.0284
3776.00,0.0284
3775.00,0.0284
3774.00,0.0284
3773.00,0.0284
3772.00,0.0284
3771.00,0.0284
3770.00,0.0284
3769.00,0.0284
3768.00,0.0284
3767.00,0.0284
3766.00,0.0283
3765.00,0.0283
3764.00,0.0283
3763.00,0.0284
3762.00,0.0285
3761.00,0.0285
3760.00,0.0284
3759.00,0.0283
3758.00,0.0282
3757.00,0.0281
3756.00,0.0281
3755.00,0.0281
3754.00,0.0282
3753.00,0.0283
3752.00,0.0284
3751.00,0.0284
3750.00,0.0283
3749.00,0.0282
3748.00,0.0282
3747.00,0.0282
3746.00,0.0281
3745.00,0.0280
3744.00,0.0279
3743.00,0.0279
3742.00,0.0281
3741.00,0.0282
3740.00,0.0282
3739.00,0.0282
3738.00,0.0282
3737.00,0.0282
3736.00,0.0282
3735.00,0.0280
3734.00,0.0278
3733.00,0.0278
3732.00,0.0278
3731.00,0.0279
3730.00,0.0280
3729.00,0.0281
3728.00,0.0281
3727.00,0.0281
3726.00,0.0280
3725.00,0.0279
3724.00,0.0279
3723.00,0.0279
3722.00,0.0279
3721.00,0.0278
3720.00,0.0279
3719.00,0.0279
3718.00,0.0280
3717.00,0.0281
3716.00,0.0282
3715.00,0.0283
3714.00,0.0284
3713.00,0.0285
3712.00,0.0287
3711.00,0.0289
3710.00,0.0290
3709.00,0.0291
3708.00,0.0292
3707.00,0.0294
3706.00,0.0296
3705.00,0.0298
3704.00,0.0301
3703.00,0.0303
3702.00,0.0305
3701.00,0.0307
3700.00,0.0309
3699.00,0.0312
3698.00,0.0313
3697.00,0.0314
3696.00,0.0314
3695.00,0.0314
3694.00,0.0313
3693.00,0.0313
3692.00,0.0312
3691.00,0.0312
3690.00,0.0312
3689.00,0.0311
3688.00,0.0310
3687.00,0.0310
3686.00,0.0309
3685.00,0.0308
3684.00,0.0307
3683.00,0.0305
3682.00,0.0304
3681.00,0.0303
3680.00,0.0302
3679.00,0.0301
3678.00,0.0301
3677.00,0.0301
3676.00,0.0302
3675.00,0.0302
3674.00,0.0302
3673.00,0.0304
3672.00,0.0306
3671.00,0.0307
3670.00,0.0307
3669.00,0.0307
3668.00,0.0308
3667.00,0.0310
3666.00,0.0312
3665.00,0.0314
3664.00,0.0315
3663.00,0.0317
3662.00,0.0319
3661.00,0.0320
3660.00,0.0322
3659.00,0.0323
3658.00,0.0325
3657.00,0.0328
3656.00,0.0331
3655.00,0.0333
3654.00,0.0334
3653.00,0.0334
3652.00,0.0335
3651.00,0.0337
3650.00,0.0340
3649.00,0.0343
3648.00,0.0345
3647.00,0.0345
3646.00,0.0347
3645.00,0.0348
3644.00,0.0350
3643.00,0.0351
3642.00,0.0352
3641.00,0.0353
3640.00,0.0354
3639.00,0.0356
3638.00,0.0356
3637.00,0.0357
3636.00,0.0359
3635.00,0.0360
3634.00,0.0361
3633.00,0.0361
3632.00,0.0361
3631.00,0.0362
3630.00,0.0366
3629.00,0.0371
3628.00,0.0376
3627.00,0.0380
3626.00,0.0384
3625.00,0.0388
3624.00,0.0391
3623.00,0.0394
3622.00,0.0396
3621.00,0.0399
3620.00,0.0401
3619.00,0.0402
3618.00,0.0401
3617.00,0.0400
3616.00,0.0398
3615.00,0.0397
3614.00,0.0397
3613.00,0.0397
3612.00,0.0397
3611.00,0.0398
3610.00,0.0399
3609.00,0.0400
3608.00,0.0402
3607.00,0.0403
3606.00,0.0404
3605.00,0.0405
3604.00,0.0406
3603.00,0.0407
3602.00,0.0409
3601.00,0.0410
3600.00,0.0411
3599.00,0.0412
3598.00,0.0412
3597.00,0.0413
3596.00,0.0414
3595.00,0.0416
3594.00,0.0417
3593.00,0.0418
3592.00,0.0419
3591.00,0.0420
3590.00,0.0420
3589.00,0.0421
3588.00,0.0423
3587.00,0.0425
3586.00,0.0426
3585.00,0.0428
3584.00,0.0429
3583.00,0.0431
3582.00,0.0432
3581.00,0.0433
3580.00,0.0435
3579.00,0.0436
3578.00,0.0438
3577.00,0.0439
3576.00,0.0440
3575.00,0.0441
3574.00,0.0442
3573.00,0.0442
3572.00,0.0443
3571.00,0.0443
3570.00,0.0444
3569.00,0.0444
3568.00,0.0447
3567.00,0.0449
3566.00,0.0451
3565.00,0.0453
3564.00,0.0454
3563.00,0.0455
3562.00,0.0456
3561.00,0.0457
3560.00,0.0459
3559.00,0.0460
3558.00,0.0461
3557.00,0.0463
3556.00,0.0464
3555.00,0.0465
3554.00,0.0466
3553.00,0.0468
3552.00,0.0469
3551.00,0.0470
3550.00,0.0471
3549.00,0.0471
3548.00,0.0472
3547.00,0.0473
3546.00,0.0475
3545.00,0.0477
3544.00,0.0478
3543.00,0.0480
3542.00,0.0481
3541.00,0.0482
3540.00,0.0483
3539.00,0.0484
3538.00,0.0485
3537.00,0.0486
3536.00,0.0488
3535.00,0.0489
3534.00,0.0490
3533.00,0.0491
3532.00,0.0492
3531.00,0.0494
3530.00,0.0495
3529.00,0.0496
3528.00,0.0497
3527.00,0.0498
3526.00,0.0499
3525.00,0.0500
3524.00,0.0501
3523.00,0.0502
3522.00,0.0504
3521.00,0.0505
3520.00,0.0506
3519.00,0.0507
3518.00,0.0509
3517.00,0.0510
3516.00,0.0511
3515.00,0.0512
3514.00,0.0513
3513.00,0.0513
3512.00,0.0514
3511.00,0.0515
3510.00,0.0516
3509.00,0.0518
3508.00,0.0519
3507.00,0.0520
3506.00,0.0521
3505.00,0.0521
3504.00,0.0523
3503.00,0.0524
3502.00,0.0526
3501.00,0.0527
3500.00,0.0528
3499.00,0.0530
3498.00,0.0531
3497.00,0.0532
3496.00,0.0533
3495.00,0.0534
3494.00,0.0535
3493.00,0.0536
3492.00,0.0537
3491.00,0.0538
3490.00,0.0539
3489.00,0.0540
3488.00,0.0541
3487.00,0.0542
3486.00,0.0543
3485.00,0.0544
3484.00,0.0545
3483.00,0.0546
3482.00,0.0547
3481.00,0.0548
3480.00,0.0549
3479.00,0.0549
3478.00,0.0550
3477.00,0.0551
3476.00,0.0551
3475.00,0.0553
3474.00,0.0554
3473.00,0.0556
3472.00,0.0558
3471.00,0.0559
3470.00,0.0559
3469.00,0.0560
3468.00,0.0561
3467.00,0.0562
3466.00,0.0563
3465.00,0.0564
3464.00,0.0565
3463.00,0.0566
3462.00,0.0567
3461.00,0.0568
3460.00,0.0569
3459.00,0.0570
3458.00,0.0571
3457.00,0.0572
3456.00,0.0573
3455.00,0.0574
3454.00,0.0575
3453.00,0.0576
3452.00,0.0577
3451.00,0.0578
3450.00,0.0578
3449.00,0.0579
3448.00,0.0580
3447.00,0.0581
3446.00,0.0582
3445.00,0.0583
3444.00,0.0584
3443.00,0.0585
3442.00,0.0586
3441.00,0.0587
3440.00,0.0587
3439.00,0.0588
3438.00,0.0588
3437.00,0.0589
3436.00,0.0591
3435.00,0.0592
3434.00,0.0593
3433.00,0.0594
3432.00,0.0595
3431.00,0.0596
3430.00,0.0596
3429.00,0.0596
3428.00,0.0597
3427.00,0.0597
3426.00,0.0598
3425.00,0.0598
3424.00,0.0599
3423.00,0.0600
3422.00,0.0601
3421.00,0.0602
3420.00,0.0603
3419.00,0.0604
3418.00,0.0604
3417.00,0.0605
3416.00,0.0605
3415.00,0.0606
3414.00,0.0607
3413.00,0.0608
3412.00,0.0609
3411.00,0.0609
3410.00,0.0610
3409.00,0.0610
3408.00,0.0611
3407.00,0.0611
3406.00,0.0612
3405.00,0.0613
3404.00,0.0614
3403.00,0.0615
3402.00,0.0616
3401.00,0.0616
3400.00,0.0616
3399.00,0.0616
3398.00,0.0617
3397.00,0.0617
3396.00,0.0618
3395.00,0.0619
3394.00,0.0620
3393.00,0.0620
3392.00,0.0621
3391.00,0.0621
3390.00,0.0621
3389.00,0.0622
3388.00,0.0622
3387.00,0.0623
3386.00,0.0624
3385.00,0.0624
3384.00,0.0625
3383.00,0.0625
3382.00,0.0625
3381.00,0.0626
3380.00,0.0627
3379.00,0.0627
3378.00,0.0628
3377.00,0.0629
3376.00,0.0629
3375.00,0.0629
3374.00,0.0629
3373.00,0.0629
3372.00,0.0628
3371.00,0.0628
3370.00,0.0628
3369.00,0.0628
3368.00,0.0629
3367.00,0.0631
3366.00,0.0632
3365.00,0.0633
3364.00,0.0633
3363.00,0.0634
3362.00,0.0633
3361.00,0.0633
3360.00,0.0633
3359.00,0.0634
3358.00,0.0634
3357.00,0.0635
3356.00,0.0635
3355.00,0.0636
3354.00,0.0636
3353.00,0.0636
3352.00,0.0636
3351.00,0.0637
3350.00,0.0637
3349.00,0.0637
3348.00,0.0637
3347.00,0.0637
3346.00,0.0637
3345.00,0.0637
3344.00,0.0637
3343.00,0.0638
3342.00,0.0638
3341.00,0.0638
3340.00,0.0638
3339.00,0.0638
3338.00,0.0638
3337.00,0.0637
3336.00,0.0638
3335.00,0.0638
3334.00,0.0638
3333.00,0.0639
3332.00,0.0639
3331.00,0.0640
3330.00,0.0640
3329.00,0.0639
3328.00,0.0639
3327.00,0.0639
3326.00,0.0639
3325.00,0.0640
3324.00,0.0640
3323.00,0.0639
3322.00,0.0639
3321.00,0.0639
3320.00,0.0639
3319.00,0.0639
3318.00,0.0639
3317.00,0.0639
3316.00,0.0639
3315.00,0.0639
3314.00,0.0639
3313.00,0.0640
3312.00,0.0640
3311.00,0.0639
3310.00,0.0639
3309.00,0.0639
3308.00,0.0639
3307.00,0.0639
3306.00,0.0639
3305.00,0.0640
3304.00,0.0640
3303.00,0.0640
3302.00,0.0640
3301.00,0.0640
3300.00,0.0640
3299.00,0.0640
3298.00,0.0640
3297.00,0.0640
3296.00,0.0640
3295.00,0.0640
3294.00,0.0640
3293.00,0.0640
3292.00,0.0640
3291.00,0.0640
3290.00,0.0640
3289.00,0.0640
3288.00,0.0640
3287.00,0.0640
3286.00,0.0640
3285.00,0.0640
3284.00,0.0640
3283.00,0.0640
3282.00,0.0640
3281.00,0.0640
3280.00,0.0640
3279.00,0.0641
3278.00,0.0641
3277.00,0.0641
3276.00,0.0641
3275.00,0.0642
3274.00,0.0642
3273.00,0.0642
3272.00,0.0641
3271.00,0.0641
3270.00,0.0641
3269.00,0.0641
3268.00,0.0641
3267.00,0.0641
3266.00,0.0641
3265.00,0.0641
3264.00,0.0640
3263.00,0.0640
3262.00,0.0640
3261.00,0.0640
3260.00,0.0640
3259.00,0.0640
3258.00,0.0640
3257.00,0.0640
3256.00,0.0640
3255.00,0.0640
3254.00,0.0640
3253.00,0.0640
3252.00,0.0641
3251.00,0.0641
3250.00,0.0641
3249.00,0.0641
3248.00,0.0641
3247.00,0.0641
3246.00,0.0641
3245.00,0.0641
3244.00,0.0641
3243.00,0.0641
3242.00,0.0641
3241.00,0.0641
3240.00,0.0641
3239.00,0.0641
3238.00,0.0641
3237.00,0.0640
3236.00,0.0640
3235.00,0.0640
3234.00,0.0640
3233.00,0.0640
3232.00,0.0640
3231.00,0.0641
3230.00,0.0641
3229.00,0.0641
3228.00,0.0641
3227.00,0.0640
3226.00,0.0640
3225.00,0.0640
3224.00,0.0640
3223.00,0.0640
3222.00,0.0640
3221.00,0.0640
3220.00,0.0640
3219.00,0.0640
3218.00,0.0640
3217.00,0.0640
3216.00,0.0640
3215.00,0.0640
3214.00,0.0640
3213.00,0.0640
3212.00,0.0640
3211.00,0.0640
3210.00,0.0640
3209.00,0.0640
3208.00,0.0639
3207.00,0.0639
3206.00,0.0639
3205.00,0.0639
3204.00,0.0638
3203.00,0.0638
3202.00,0.0638
3201.00,0.0638
3200.00,0.0638
3199.00,0.0638
3198.00,0.0638
3197.00,0.0637
3196.00,0.0637
3195.00,0.0637
3194.00,0.0636
3193.00,0.0636
3192.00,0.0636
3191.00,0.0636
3190.00,0.0636
3189.00,0.0635
3188.00,0.0635
3187.00,0.0635
3186.00,0.0635
3185.00,0.0635
3184.00,0.0635
3183.00,0.0634
3182.00,0.0634
3181.00,0.0633
3180.00,0.0632
3179.00,0.0632
3178.00,0.0631
3177.00,0.0631
3176.00,0.0631
3175.00,0.0631
3174.00,0.0631
3173.00,0.0630
3172.00,0.0630
3171.00,0.0630
3170.00,0.0630
3169.00,0.0629
3168.00,0.0629
3167.00,0.0629
3166.00,0.0628
3165.00,0.0627
3164.00,0.0627
3163.00,0.0626
3162.00,0.0626
3161.00,0.0626
3160.00,0.0626
3159.00,0.0626
3158.00,0.0625
3157.00,0.0625
3156.00,0.0624
3155.00,0.0623
3154.00,0.0623
3153.00,0.0622
3152.00,0.0622
3151.00,0.0622
3150.00,0.0622
3149.00,0.0622
3148.00,0.0622
3147.00,0.0621
3146.00,0.0621
3145.00,0.0620
3144.00,0.0620
3143.00,0.0619
3142.00,0.0619
3141.00,0.0618
3140.00,0.0618
3139.00,0.0618
3138.00,0.0618
3137.00,0.0618
3136.00,0.0617
3135.00,0.0616
3134.00,0.0616
3133.00,0.0615
3132.00,0.0615
3131.00,0.0615
3130.00,0.0614
3129.00,0.0614
3128.00,0.0613
3127.00,0.0613
3126.00,0.0613
3125.00,0.0613
3124.00,0.0612
3123.00,0.0612
3122.00,0.0611
3121.00,0.0611
3120.00,0.0611
3119.00,0.0611
3118.00,0.0611
3117.00,0.0610
3116.00,0.0610
3115.00,0.0610
3114.00,0.0610
3113.00,0.0609
3112.00,0.0609
3111.00,0.0608
3110.00,0.0608
3109.00,0.0607
3108.00,0.0607
3107.00,0.0607
3106.00,0.0607
3105.00,0.0607
3104.00,0.0607
3103.00,0.0607
3102.00,0.0606
3101.00,0.0606
3100.00,0.0606
3099.00,0.0605
3098.00,0.0604
3097.00,0.0604
3096.00,0.0604
3095.00,0.0604
3094.00,0.0604
3093.00,0.0604
3092.00,0.0604
3091.00,0.0604
3090.00,0.0604
3089.00,0.0604
3088.00,0.0604
3087.00,0.0603
3086.00,0.0603
3085.00,0.0602
3084.00,0.0602
3083.00,0.0602
3082.00,0.0601
3081.00,0.0601
3080.00,0.0601
3079.00,0.0601
3078.00,0.0601
3077.00,0.0600
3076.00,0.0600
3075.00,0.0600
3074.00,0.0599
3073.00,0.0599
3072.00,0.0598
3071.00,0.0598
3070.00,0.0597
3069.00,0.0597
3068.00,0.0596
3067.00,0.0596
3066.00,0.0596
3065.00,0.0596
3064.00,0.0596
3063.00,0.0596
3062.00,0.0596
3061.00,0.0595
3060.00,0.0594
3059.00,0.0594
3058.00,0.0593
3057.00,0.0592
3056.00,0.0591
3055.00,0.0591
3054.00,0.0591
3053.00,0.0591
3052.00,0.0590
3051.00,0.0590
3050.00,0.0590
3049.00,0.0589
3048.00,0.0589
3047.00,0.0588
3046.00,0.0587
3045.00,0.0587
3044.00,0.0586
3043.00,0.0586
3042.00,0.0585
3041.00,0.0585
3040.00,0.0585
3039.00,0.0584
3038.00,0.0584
3037.00,0.0583
3036.00,0.0582
3035.00,0.0581
3034.00,0.0581
3033.00,0.0580
3032.00,0.0579
3031.00,0.0579
3030.00,0.0579
3029.00,0.0579
3028.00,0.0579
3027.00,0.0579
3026.00,0.0578
3025.00,0.0578
3024.00,0.0577
3023.00,0.0576
3022.00,0.0575
3021.00,0.0575
3020.00,0.0574
3019.00,0.0574
3018.00,0.0574
3017.00,0.0573
3016.00,0.0573
3015.00,0.0573
3014.00,0.0574
3013.00,0.0574
3012.00,0.0573
3011.00,0.0573
3010.00,0.0572
3009.00,0.0572
3008.00,0.0571
3007.00,0.0571
3006.00,0.0571
3005.00,0.0571
3004.00,0.0571
3003.00,0.0571
3002.00,0.0572
3001.00,0.0572
3000.00,0.0572
2999.00,0.0572
2998.00,0.0571
2997.00,0.0571
2996.00,0.0570
2995.00,0.0570
2994.00,0.0570
2993.00,0.0570
2992.00,0.0570
2991.00,0.0570
2990.00,0.0570
2989.00,0.0570
2988.00,0.0570
2987.00,0.0570
2986.00,0.0571
2985.00,0.0572
2984.00,0.0573
2983.00,0.0573
2982.00,0.0573
2981.00,0.0573
2980.00,0.0572
2979.00,0.0571
2978.00,0.0570
2977.00,0.0569
2976.00,0.0569
2975.00,0.0569
2974.00,0.0569
2973.00,0.0569
2972.00,0.0569
2971.00,0.0568
2970.00,0.0568
2969.00,0.0567
2968.00,0.0566
2967.00,0.0565
2966.00,0.0565
2965.00,0.0564
2964.00,0.0564
2963.00,0.0563
2962.00,0.0563
2961.00,0.0562
2960.00,0.0562
2959.00,0.0561
2958.00,0.0561
2957.00,0.0561
2956.00,0.0561
2955.00,0.0560
2954.00,0.0560
2953.00,0.0560
2952.00,0.0559
2951.00,0.0559
2950.00,0.0559
2949.00,0.0558
2948.00,0.0558
2947.00,0.0558
2946.00,0.0557
2945.00,0.0557
2944.00,0.0557
2943.00,0.0557
2942.00,0.0557
2941.00,0.0557
2940.00,0.0557
2939.00,0.0557
2938.00,0.0557
2937.00,0.0558
2936.00,0.0558
2935.00,0.0558
2934.00,0.0558
2933.00,0.0558
2932.00,0.0557
2931.00,0.0557
2930.00,0.0556
2929.00,0.0556
2928.00,0.0556
2927.00,0.0556
2926.00,0.0556
2925.00,0.0556
2924.00,0.0556
2923.00,0.0557
2922.00,0.0557
2921.00,0.0557
2920.00,0.0557
2919.00,0.0556
2918.00,0.0555
2917.00,0.0553
2916.00,0.0552
2915.00,0.0551
2914.00,0.0551
2913.00,0.0550
2912.00,0.0550
2911.00,0.0549
2910.00,0.0549
2909.00,0.0548
2908.00,0.0548
2907.00,0.0547
2906.00,0.0546
2905.00,0.0546
2904.00,0.0545
2903.00,0.0545
2902.00,0.0544
2901.00,0.0544
2900.00,0.0543
2899.00,0.0543
2898.00,0.0542
2897.00,0.0541
2896.00,0.0541
2895.00,0.0540
2894.00,0.0540
2893.00,0.0540
2892.00,0.0539
2891.00,0.0539
2890.00,0.0539
2889.00,0.0538
2888.00,0.0538
2887.00,0.0537
2886.00,0.0537
2885.00,0.0536
2884.00,0.0536
2883.00,0.0535
2882.00,0.0535
2881.00,0.0534
2880.00,0.0533
2879.00,0.0532
2878.00,0.0531
2877.00,0.0531
2876.00,0.0530
2875.00,0.0529
2874.00,0.0528
2873.00,0.0528
2872.00,0.0527
2871.00,0.0527
2870.00,0.0526
2869.00,0.0526
2868.00,0.0525
2867.00,0.0524
2866.00,0.0524
2865.00,0.0523
2864.00,0.0523
2863.00,0.0523
2862.00,0.0523
2861.00,0.0523
2860.00,0.0522
2859.00,0.0521
2858.00,0.0521
2857.00,0.0520
2856.00,0.0520
2855.00,0.0520
2854.00,0.0520
2853.00,0.0520
2852.00,0.0520
2851.00,0.0519
2850.00,0.0519
2849.00,0.0518
2848.00,0.0517
2847.00,0.0516
2846.00,0.0515
2845.00,0.0515
2844.00,0.0514
2843.00,0.0513
2842.00,0.0512
2841.00,0.0511
2840.00,0.0510
2839.00,0.0509
2838.00,0.0508
2837.00,0.0507
2836.00,0.0506
2835.00,0.0506
2834.00,0.0505
2833.00,0.0505
2832.00,0.0504
2831.00,0.0504
2830.00,0.0503
2829.00,0.0503
2828.00,0.0503
2827.00,0.0502
2826.00,0.0502
2825.00,0.0501
2824.00,0.0500
2823.00,0.0500
2822.00,0.0499
2821.00,0.0499
2820.00,0.0499
2819.00,0.0498
2818.00,0.0498
2817.00,0.0497
2816.00,0.0496
2815.00,0.0495
2814.00,0.0495
2813.00,0.0494
2812.00,0.0494
2811.00,0.0494
2810.00,0.0493
2809.00,0.0493
2808.00,0.0492
2807.00,0.0491
2806.00,0.0490
2805.00,0.0490
2804.00,0.0489
2803.00,0.0489
2802.00,0.0489
2801.00,0.0488
2800.00,0.0488
2799.00,0.0487
2798.00,0.0487
2797.00,0.0486
2796.00,0.0486
2795.00,0.0485
2794.00,0.0485
2793.00,0.0485
2792.00,0.0484
2791.00,0.0483
2790.00,0.0483
2789.00,0.0482
2788.00,0.0482
2787.00,0.0482
2786.00,0.0481
2785.00,0.0481
2784.00,0.0480
2783.00,0.0480
2782.00,0.0479
2781.00,0.0479
2780.00,0.0479
2779.00,0.0478
2778.00,0.0477
2777.00,0.0477
2776.00,0.0476
2775.00,0.0476
2774.00,0.0476
2773.00,0.0476
2772.00,0.0475
2771.00,0.0474
2770.00,0.0474
2769.00,0.0473
2768.00,0.0473
2767.00,0.0472
2766.00,0.0472
2765.00,0.0472
2764.00,0.0472
2763.00,0.0471
2762.00,0.0471
2761.00,0.0471
2760.00,0.0470
2759.00,0.0470
2758.00,0.0469
2757.00,0.0468
2756.00,0.0468
2755.00,0.0467
