Created as New Dataset,
cm-1,A
4000.00,-0.0004
3999.00,-0.0004
3998.00,-0.0004
3997.00,-0.0003
3996.00,-0.0003
3995.00,-0.0003
3994.00,-0.0002
3993.00,-0.0002
3992.00,-0.0002
3991.00,-0.0003
3990.00,-0.0003
3989.00,-0.0004
3988.00,-0.0004
3987.00,-0.0004
3986.00,-0.0004
3985.00,-0.0003
3984.00,-0.0003
3983.00,-0.0003
3982.00,-0.0003
3981.00,-0.0003
3980.00,-0.0003
3979.00,-0.0003
3978.00,-0.0002
3977.00,-0.0002
3976.00,-0.0002
3975.00,-0.0002
3974.00,-0.0002
3973.00,-0.0002
3972.00,-0.0002
3971.00,-0.0002
3970.00,-0.0002
3969.00,-0.0003
3968.00,-0.0003
3967.00,-0.0003
3966.00,-0.0003
3965.00,-0.0003
3964.00,-0.0002
3963.00,-0.0002
3962.00,-0.0002
3961.00,-0.0002
3960.00,-0.0001
3959.00,-0.0001
3958.00,-0.0001
3957.00,-0.0001
3956.00,-0.0001
3955.00,-0.0001
3954.00,-0.0001
3953.00,-0.0001
3952.00,-0.0001
3951.00,0.0000
3950.00,0.0001
3949.00,0.0001
3948.00,0.0001
3947.00,0.0001
3946.00,0.0002
3945.00,0.0002
3944.00,0.0002
3943.00,0.0001
3942.00,0.0001
3941.00,0.0001
3940.00,0.0001
3939.00,0.0000
3938.00,-0.0000
3937.00,-0.0001
3936.00,-0.0001
3935.00,0.0000
3934.00,0.0001
3933.00,0.0001
3932.00,0.0001
3931.00,0.0002
3930.00,0.0002
3929.00,0.0002
3928.00,0.0003
3927.00,0.0003
3926.00,0.0003
3925.00,0.0002
3924.00,0.0002
3923.00,0.0002
3922.00,0.0003
3921.00,0.0003
3920.00,0.0003
3919.00,0.0003
3918.00,0.0003
3917.00,0.0003
3916.00,0.0002
3915.00,0.0002
3914.00,0.0001
3913.00,0.0000
3912.00,-0.0001
3911.00,-0.0001
3910.00,-0.0001
3909.00,-0.0000
3908.00,0.0002
3907.00,0.0003
3906.00,0.0004
3905.00,0.0005
3904.00,0.0006
3903.00,0.0008
3902.00,0.0010
3901.00,0.0011
3900.00,0.0010
3899.00,0.0007
3898.00,0.0005
3897.00,0.0004
3896.00,0.0004
3895.00,0.0004
3894.00,0.0004
3893.00,0.0004
3892.00,0.0003
3891.00,0.0002
3890.00,0.0002
3889.00,0.0004
3888.00,0.0006
3887.00,0.0007
3886.00,0.0005
3885.00,0.0005
3884.00,0.0007
3883.00,0.0010
3882.00,0.0012
3881.00,0.0010
3880.00,0.0006
3879.00,0.0005
3878.00,0.0005
3877.00,0.0007
3876.00,0.0007
3875.00,0.0005
3874.00,0.0004
3873.00,0.0005
3872.00,0.0007
3871.00,0.0008
3870.00,0.0007
3869.00,0.0005
3868.00,0.0007
3867.00,0.0009
3866.00,0.0009
3865.00,0.0007
3864.00,0.0006
3863.00,0.0006
3862.00,0.0006
3861.00,0.0005
3860.00,0.0004
3859.00,0.0004
3858.00,0.0004
3857.00,0.0006
3856.00,0.0008
3855.00,0.0008
3854.00,0.0007
3853.00,0.0007
3852.00,0.0008
3851.00,0.0009
3850.00,0.0008
3849.00,0.0006
3848.00,0.0004
3847.00,0.0002
3846.00,0.0002
3845.00,0.0002
3844.00,0.0002
3843.00,0.0003
3842.00,0.0005
3841.00,0.0006
3840.00,0.0008
3839.00,0.0008
3838.00,0.0008
3837.00,0.0009
3836.00,0.0009
3835.00,0.0009
3834.00,0.0009
3833.00,0.0007
3832.00,0.0005
3831.00,0.0004
3830.00,0.0004
3829.00,0.0005
3828.00,0.0005
3827.00,0.0004
3826.00,0.0003
3825.00,0.0004
3824.00,0.0006
3823.00,0.0008
3822.00,0.0007
3821.00,0.0004
3820.00,0.0004
3819.00,0.0007
3818.00,0.0009
3817.00,0.0008
3816.00,0.0005
3815.00,0.0003
3814.00,0.0003
3813.00,0.0003
3812.00,0.0002
3811.00,0.0001
3810.00,0.0001
3809.00,0.0001
3808.00,0.0001
3807.00,0.0000
3806.00,0.0000
3805.00,0.0003
3804.00,0.0006
3803.00,0.0008
3802.00,0.0006
3801.00,0.0005
3800.00,0.0006
3799.00,0.0008
3798.00,0.0008
3797.00,0.0006
3796.00,0.0004
3795.00,0.0003
3794.00,0.0003
3793.00,0.0003
3792.00,0.0002
3791.00,0.0001
3790.00,0.0001
3789.00,0.0001
3788.00,0.0001
3787.00,0.0001
3786.00,0.0001
3785.00,0.0001
3784.00,0.0001
3783.00,0.0002
3782.00,0.0003
3781.00,0.0003
3780.00,0.0002
3779.00,0.0001
3778.00,0.0002
3777.00,0.0002
3776.00,0.0002
3775.00,0.0001
3774.00,0.0000
3773.00,0.0001
3772.00,0.0001
3771.00,0.0001
3770.00,0.0001
3769.00,0.0002
3768.00,0.0004
3767.00,0.0006
3766.00,0.0005
3765.00,0.0004
3764.00,0.0003
3763.00,0.0004
3762.00,0.0006
3761.00,0.0006
3760.00,0.0005
3759.00,0.0005
3758.00,0.0005
3757.00,0.0005
3756.00,0.0005
3755.00,0.0006
3754.00,0.0006
3753.00,0.0005
3752.00,0.0004
3751.00,0.0005
3750.00,0.0007
3749.00,0.0008
3748.00,0.0011
3747.00,0.0014
3746.00,0.0015
3745.00,0.0012
3744.00,0.0009
3743.00,0.0008
3742.00,0.0009
3741.00,0.0010
3740.00,0.0008
3739.00,0.0007
3738.00,0.0008
3737.00,0.0009
3736.00,0.0010
3735.00,0.0013
3734.00,0.0014
3733.00,0.0014
3732.00,0.0012
3731.00,0.0009
3730.00,0.0008
3729.00,0.0009
3728.00,0.0009
3727.00,0.0008
3726.00,0.0009
3725.00,0.0010
3724.00,0.0012
3723.00,0.0012
3722.00,0.0012
3721.00,0.0012
3720.00,0.0012
3719.00,0.0012
3718.00,0.0011
3717.00,0.0011
3716.00,0.0012
3715.00,0.0014
3714.00,0.0016
3713.00,0.0018
3712.00,0.0021
3711.00,0.0025
3710.00,0.0028
3709.00,0.0029
3708.00,0.0029
3707.00,0.0029
3706.00,0.0029
3705.00,0.0030
3704.00,0.0032
3703.00,0.0035
3702.00,0.0038
3701.00,0.0041
3700.00,0.0042
3699.00,0.0043
3698.00,0.0044
3697.00,0.0043
3696.00,0.0043
3695.00,0.0043
3694.00,0.0044
3693.00,0.0045
3692.00,0.0045
3691.00,0.0046
3690.00,0.0047
3689.00,0.0047
3688.00,0.0047
3687.00,0.0045
3686.00,0.0043
3685.00,0.0041
3684.00,0.0038
3683.00,0.0035
3682.00,0.0034
3681.00,0.0032
3680.00,0.0031
3679.00,0.0031
3678.00,0.0034
3677.00,0.0037
3676.00,0.0039
3675.00,0.0040
3674.00,0.0041
3673.00,0.0043
3672.00,0.0044
3671.00,0.0042
3670.00,0.0041
3669.00,0.0041
3668.00,0.0042
3667.00,0.0043
3666.00,0.0042
3665.00,0.0040
3664.00,0.0039
3663.00,0.0038
3662.00,0.0038
3661.00,0.0039
3660.00,0.0040
3659.00,0.0042
3658.00,0.0044
3657.00,0.0046
3656.00,0.0048
3655.00,0.0050
3654.00,0.0053
3653.00,0.0056
3652.00,0.0056
3651.00,0.0055
3650.00,0.0057
3649.00,0.0063
3648.00,0.0069
3647.00,0.0069
3646.00,0.0066
3645.00,0.0063
3644.00,0.0060
3643.00,0.0057
3642.00,0.0055
3641.00,0.0054
3640.00,0.0053
3639.00,0.0053
3638.00,0.0053
3637.00,0.0054
3636.00,0.0055
3635.00,0.0055
3634.00,0.0054
3633.00,0.0054
3632.00,0.0056
3631.00,0.0059
3630.00,0.0062
3629.00,0.0065
3628.00,0.0069
3627.00,0.0071
3626.00,0.0072
3625.00,0.0072
3624.00,0.0071
3623.00,0.0072
3622.00,0.0074
3621.00,0.0077
3620.00,0.0079
3619.00,0.0081
3618.00,0.0081
3617.00,0.0080
3616.00,0.0078
3615.00,0.0075
3614.00,0.0072
3613.00,0.0070
3612.00,0.0070
3611.00,0.0071
3610.00,0.0072
3609.00,0.0071
3608.00,0.0071
3607.00,0.0070
3606.00,0.0070
3605.00,0.0069
3604.00,0.0068
3603.00,0.0067
3602.00,0.0066
3601.00,0.0066
3600.00,0.0067
3599.00,0.0067
3598.00,0.0068
3597.00,0.0068
3596.00,0.0069
3595.00,0.0069
3594.00,0.0069
3593.00,0.0069
3592.00,0.0069
3591.00,0.0069
3590.00,0.0070
3589.00,0.0071
3588.00,0.0073
3587.00,0.0076
3586.00,0.0077
3585.00,0.0076
3584.00,0.0075
3583.00,0.0073
3582.00,0.0072
3581.00,0.0071
3580.00,0.0070
3579.00,0.0071
3578.00,0.0070
3577.00,0.0070
3576.00,0.0070
3575.00,0.0070
3574.00,0.0069
3573.00,0.0070
3572.00,0.0070
3571.00,0.0072
3570.00,0.0074
3569.00,0.0076
3568.00,0.0079
3567.00,0.0082
3566.00,0.0084
3565.00,0.0085
3564.00,0.0083
3563.00,0.0081
3562.00,0.0079
3561.00,0.0078
3560.00,0.0076
3559.00,0.0076
3558.00,0.0075
3557.00,0.0075
3556.00,0.0074
3555.00,0.0075
3554.00,0.0075
3553.00,0.0076
3552.00,0.0077
3551.00,0.0078
3550.00,0.0079
3549.00,0.0079
3548.00,0.0080
3547.00,0.0081
3546.00,0.0082
3545.00,0.0082
3544.00,0.0082
3543.00,0.0082
3542.00,0.0081
3541.00,0.0080
3540.00,0.0080
3539.00,0.0080
3538.00,0.0080
3537.00,0.0081
3536.00,0.0081
3535.00,0.0082
3534.00,0.0082
3533.00,0.0081
3532.00,0.0081
3531.00,0.0081
3530.00,0.0081
3529.00,0.0082
3528.00,0.0083
3527.00,0.0085
3526.00,0.0086
3525.00,0.0087
3524.00,0.0087
3523.00,0.0087
3522.00,0.0087
3521.00,0.0086
3520.00,0.0086
3519.00,0.0085
3518.00,0.0085
3517.00,0.0086
3516.00,0.0086
3515.00,0.0087
3514.00,0.0087
3513.00,0.0087
3512.00,0.0088
3511.00,0.0089
3510.00,0.0089
3509.00,0.0090
3508.00,0.0090
3507.00,0.0091
3506.00,0.0091
3505.00,0.0091
3504.00,0.0091
3503.00,0.0091
3502.00,0.0092
3501.00,0.0093
3500.00,0.0093
3499.00,0.0093
3498.00,0.0093
3497.00,0.0092
3496.00,0.0092
3495.00,0.0092
3494.00,0.0092
3493.00,0.0092
3492.00,0.0092
3491.00,0.0092
3490.00,0.0092
3489.00,0.0092
3488.00,0.0092
3487.00,0.0093
3486.00,0.0094
3485.00,0.0096
3484.00,0.0096
3483.00,0.0097
3482.00,0.0097
3481.00,0.0097
3480.00,0.0097
3479.00,0.0097
3478.00,0.0097
3477.00,0.0098
3476.00,0.0098
3475.00,0.0098
3474.00,0.0098
3473.00,0.0099
3472.00,0.0099
3471.00,0.0099
3470.00,0.0099
3469.00,0.0100
3468.00,0.0100
3467.00,0.0100
3466.00,0.0100
3465.00,0.0101
3464.00,0.0101
3463.00,0.0101
3462.00,0.0101
3461.00,0.0101
3460.00,0.0101
3459.00,0.0101
3458.00,0.0101
3457.00,0.0101
3456.00,0.0101
3455.00,0.0102
3454.00,0.0102
3453.00,0.0103
3452.00,0.0103
3451.00,0.0103
3450.00,0.0104
3449.00,0.0104
3448.00,0.0104
3447.00,0.0105
3446.00,0.0105
3445.00,0.0105
3444.00,0.0105
3443.00,0.0105
3442.00,0.0105
3441.00,0.0105
3440.00,0.0105
3439.00,0.0106
3438.00,0.0106
3437.00,0.0106
3436.00,0.0105
3435.00,0.0106
3434.00,0.0106
3433.00,0.0106
3432.00,0.0106
3431.00,0.0106
3430.00,0.0106
3429.00,0.0106
3428.00,0.0106
3427.00,0.0106
3426.00,0.0107
3425.00,0.0107
3424.00,0.0107
3423.00,0.0108
3422.00,0.0108
3421.00,0.0109
3420.00,0.0109
3419.00,0.0110
3418.00,0.0110
3417.00,0.0110
3416.00,0.0109
3415.00,0.0109
3414.00,0.0109
3413.00,0.0109
3412.00,0.0110
3411.00,0.0110
3410.00,0.0111
3409.00,0.0111
3408.00,0.0111
3407.00,0.0111
3406.00,0.0112
3405.00,0.0112
3404.00,0.0112
3403.00,0.0112
3402.00,0.0112
3401.00,0.0112
3400.00,0.0112
3399.00,0.0112
3398.00,0.0112
3397.00,0.0112
3396.00,0.0112
3395.00,0.0112
3394.00,0.0113
3393.00,0.0113
3392.00,0.0114
3391.00,0.0114
3390.00,0.0114
3389.00,0.0113
3388.00,0.0113
3387.00,0.0113
3386.00,0.0114
3385.00,0.0114
3384.00,0.0114
3383.00,0.0114
3382.00,0.0114
3381.00,0.0113
3380.00,0.0113
3379.00,0.0114
3378.00,0.0114
3377.00,0.0114
3376.00,0.0114
3375.00,0.0114
3374.00,0.0114
3373.00,0.0115
3372.00,0.0115
3371.00,0.0115
3370.00,0.0115
3369.00,0.0115
3368.00,0.0116
3367.00,0.0116
3366.00,0.0116
3365.00,0.0117
3364.00,0.0117
3363.00,0.0117
3362.00,0.0117
3361.00,0.0117
3360.00,0.0116
3359.00,0.0116
3358.00,0.0116
3357.00,0.0117
3356.00,0.0117
3355.00,0.0117
3354.00,0.0117
3353.00,0.0117
3352.00,0.0117
3351.00,0.0116
3350.00,0.0116
3349.00,0.0116
3348.00,0.0116
3347.00,0.0116
3346.00,0.0116
3345.00,0.0117
3344.00,0.0117
3343.00,0.0117
3342.00,0.0118
3341.00,0.0118
3340.00,0.0118
3339.00,0.0118
3338.00,0.0117
3337.00,0.0118
3336.00,0.0118
3335.00,0.0118
3334.00,0.0119
3333.00,0.0119
3332.00,0.0119
3331.00,0.0119
3330.00,0.0118
3329.00,0.0118
3328.00,0.0118
3327.00,0.0118
3326.00,0.0119
3325.00,0.0119
3324.00,0.0119
3323.00,0.0119
3322.00,0.0119
3321.00,0.0118
3320.00,0.0118
3319.00,0.0118
3318.00,0.0118
3317.00,0.0118
3316.00,0.0118
3315.00,0.0119
3314.00,0.0119
3313.00,0.0119
3312.00,0.0119
3311.00,0.0119
3310.00,0.0119
3309.00,0.0119
3308.00,0.0120
3307.00,0.0121
3306.00,0.0121
3305.00,0.0121
3304.00,0.0121
3303.00,0.0121
3302.00,0.0120
3301.00,0.0119
3300.00,0.0119
3299.00,0.0118
3298.00,0.0118
3297.00,0.0119
3296.00,0.0119
3295.00,0.0119
3294.00,0.0119
3293.00,0.0120
3292.00,0.0120
3291.00,0.0120
3290.00,0.0120
3289.00,0.0120
3288.00,0.0120
3287.00,0.0120
3286.00,0.0120
3285.00,0.0120
3284.00,0.0120
3283.00,0.0120
3282.00,0.0120
3281.00,0.0120
3280.00,0.0120
3279.00,0.0120
3278.00,0.0120
3277.00,0.0120
3276.00,0.0120
3275.00,0.0121
3274.00,0.0121
3273.00,0.0121
3272.00,0.0121
3271.00,0.0121
3270.00,0.0120
3269.00,0.0120
3268.00,0.0120
3267.00,0.0120
3266.00,0.0120
3265.00,0.0120
3264.00,0.0120
3263.00,0.0120
3262.00,0.0120
3261.00,0.0120
3260.00,0.0120
3259.00,0.0120
3258.00,0.0121
3257.00,0.0121
3256.00,0.0122
3255.00,0.0122
3254.00,0.0121
3253.00,0.0120
3252.00,0.0120
3251.00,0.0120
3250.00,0.0120
3249.00,0.0121
3248.00,0.0122
3247.00,0.0122
3246.00,0.0123
3245.00,0.0123
3244.00,0.0123
3243.00,0.0122
3242.00,0.0121
3241.00,0.0121
3240.00,0.0121
3239.00,0.0121
3238.00,0.0121
3237.00,0.0122
3236.00,0.0122
3235.00,0.0122
3234.00,0.0122
3233.00,0.0123
3232.00,0.0123
3231.00,0.0123
3230.00,0.0123
3229.00,0.0123
3228.00,0.0122
3227.00,0.0122
3226.00,0.0122
3225.00,0.0122
3224.00,0.0122
3223.00,0.0122
3222.00,0.0123
3221.00,0.0123
3220.00,0.0123
3219.00,0.0122
3218.00,0.0122
3217.00,0.0121
3216.00,0.0121
3215.00,0.0121
3214.00,0.0121
3213.00,0.0121
3212.00,0.0122
3211.00,0.0123
3210.00,0.0123
3209.00,0.0122
3208.00,0.0122
3207.00,0.0122
3206.00,0.0122
3205.00,0.0122
3204.00,0.0122
3203.00,0.0121
3202.00,0.0121
3201.00,0.0121
3200.00,0.0122
3199.00,0.0122
3198.00,0.0122
3197.00,0.0122
3196.00,0.0121
3195.00,0.0121
3194.00,0.0121
3193.00,0.0121
3192.00,0.0121
3191.00,0.0121
3190.00,0.0121
3189.00,0.0121
3188.00,0.0121
3187.00,0.0121
3186.00,0.0120
3185.00,0.0120
3184.00,0.0120
3183.00,0.0120
3182.00,0.0120
3181.00,0.0121
3180.00,0.0121
3179.00,0.0120
3178.00,0.0120
3177.00,0.0120
3176.00,0.0119
3175.00,0.0119
3174.00,0.0120
3173.00,0.0120
3172.00,0.0120
3171.00,0.0120
3170.00,0.0119
3169.00,0.0119
3168.00,0.0118
3167.00,0.0118
3166.00,0.0118
3165.00,0.0119
3164.00,0.0119
3163.00,0.0119
3162.00,0.0118
3161.00,0.0118
3160.00,0.0118
3159.00,0.0118
3158.00,0.0119
3157.00,0.0118
3156.00,0.0118
3155.00,0.0117
3154.00,0.0117
3153.00,0.0117
3152.00,0.0117
3151.00,0.0117
3150.00,0.0117
3149.00,0.0117
3148.00,0.0117
3147.00,0.0117
3146.00,0.0117
3145.00,0.0117
3144.00,0.0117
3143.00,0.0117
3142.00,0.0117
3141.00,0.0117
3140.00,0.0117
3139.00,0.0117
3138.00,0.0117
3137.00,0.0116
3136.00,0.0116
3135.00,0.0116
3134.00,0.0115
3133.00,0.0115
3132.00,0.0115
3131.00,0.0115
3130.00,0.0115
3129.00,0.0115
3128.00,0.0115
3127.00,0.0115
3126.00,0.0114
3125.00,0.0114
3124.00,0.0115
3123.00,0.0115
3122.00,0.0115
3121.00,0.0115
3120.00,0.0115
3119.00,0.0114
3118.00,0.0114
3117.00,0.0113
3116.00,0.0114
3115.00,0.0114
3114.00,0.0114
3113.00,0.0114
3112.00,0.0114
3111.00,0.0114
3110.00,0.0113
3109.00,0.0113
3108.00,0.0112
3107.00,0.0112
3106.00,0.0112
3105.00,0.0112
3104.00,0.0113
3103.00,0.0113
3102.00,0.0112
3101.00,0.0112
3100.00,0.0112
3099.00,0.0112
3098.00,0.0112
3097.00,0.0112
3096.00,0.0112
3095.00,0.0112
3094.00,0.0112
3093.00,0.0111
3092.00,0.0111
3091.00,0.0111
3090.00,0.0111
3089.00,0.0111
3088.00,0.0111
3087.00,0.0111
3086.00,0.0111
3085.00,0.0110
3084.00,0.0110
3083.00,0.0110
3082.00,0.0110
3081.00,0.0110
3080.00,0.0110
3079.00,0.0110
3078.00,0.0109
3077.00,0.0109
3076.00,0.0109
3075.00,0.0109
3074.00,0.0109
3073.00,0.0109
3072.00,0.0109
3071.00,0.0110
3070.00,0.0110
3069.00,0.0109
3068.00,0.0109
3067.00,0.0109
3066.00,0.0109
3065.00,0.0109
3064.00,0.0109
3063.00,0.0108
3062.00,0.0108
3061.00,0.0107
3060.00,0.0107
3059.00,0.0107
3058.00,0.0107
3057.00,0.0107
3056.00,0.0107
3055.00,0.0107
3054.00,0.0107
3053.00,0.0107
3052.00,0.0107
3051.00,0.0106
3050.00,0.0105
3049.00,0.0105
3048.00,0.0104
3047.00,0.0104
3046.00,0.0104
3045.00,0.0105
3044.00,0.0105
3043.00,0.0105
3042.00,0.0104
3041.00,0.0104
3040.00,0.0103
3039.00,0.0103
3038.00,0.0104
3037.00,0.0104
3036.00,0.0104
3035.00,0.0104
3034.00,0.0103
3033.00,0.0103
3032.00,0.0103
3031.00,0.0103
3030.00,0.0103
3029.00,0.0102
3028.00,0.0102
3027.00,0.0101
3026.00,0.0101
3025.00,0.0100
3024.00,0.0100
3023.00,0.0100
3022.00,0.0100
3021.00,0.0100
3020.00,0.0100
3019.00,0.0100
3018.00,0.0099
3017.00,0.0099
3016.00,0.0099
3015.00,0.0099
3014.00,0.0099
3013.00,0.0099
3012.00,0.0099
3011.00,0.0099
3010.00,0.0098
3009.00,0.0098
3008.00,0.0097
3007.00,0.0097
3006.00,0.0096
3005.00,0.0096
3004.00,0.0096
3003.00,0.0095
3002.00,0.0095
3001.00,0.0095
3000.00,0.0094
2999.00,0.0094
2998.00,0.0094
2997.00,0.0093
2996.00,0.0093
2995.00,0.0093
2994.00,0.0092
2993.00,0.0092
2992.00,0.0092
2991.00,0.0091
2990.00,0.0091
2989.00,0.0091
2988.00,0.0090
2987.00,0.0090
2986.00,0.0090
2985.00,0.0089
2984.00,0.0089
2983.00,0.0088
2982.00,0.0088
2981.00,0.0087
2980.00,0.0087
2979.00,0.0088
2978.00,0.0088
2977.00,0.0088
2976.00,0.0088
2975.00,0.0088
2974.00,0.0087
2973.00,0.0087
2972.00,0.0086
2971.00,0.0086
2970.00,0.0085
2969.00,0.0085
2968.00,0.0085
2967.00,0.0085
2966.00,0.0085
2965.00,0.0084
2964.00,0.0084
2963.00,0.0084
2962.00,0.0084
2961.00,0.0084
2960.00,0.0084
2959.00,0.0084
2958.00,0.0084
2957.00,0.0084
2956.00,0.0084
2955.00,0.0084
2954.00,0.0085
2953.00,0.0085
2952.00,0.0086
2951.00,0.0086
2950.00,0.0085
2949.00,0.0085
2948.00,0.0085
2947.00,0.0085
2946.00,0.0086
2945.00,0.0087
2944.00,0.0087
2943.00,0.0087
2942.00,0.0087
2941.00,0.0086
2940.00,0.0085
2939.00,0.0085
2938.00,0.0084
2937.00,0.0084
2936.00,0.0083
2935.00,0.0083
2934.00,0.0082
2933.00,0.0081
2932.00,0.0081
2931.00,0.0080
2930.00,0.0079
2929.00,0.0078
2928.00,0.0077
2927.00,0.0076
2926.00,0.0075
2925.00,0.0075
2924.00,0.0074
2923.00,0.0074
2922.00,0.0074
2921.00,0.0074
2920.00,0.0074
2919.00,0.0074
2918.00,0.0073
2917.00,0.0073
2916.00,0.0074
2915.00,0.0075
2914.00,0.0076
2913.00,0.0077
2912.00,0.0078
2911.00,0.0079
2910.00,0.0079
2909.00,0.0080
2908.00,0.0080
2907.00,0.0080
2906.00,0.0080
2905.00,0.0080
2904.00,0.0079
2903.00,0.0080
2902.00,0.0080
2901.00,0.0080
2900.00,0.0080
2899.00,0.0080
2898.00,0.0080
2897.00,0.0080
2896.00,0.0079
2895.00,0.0079
2894.00,0.0079
2893.00,0.0079
2892.00,0.0080
2891.00,0.0080
2890.00,0.0079
2889.00,0.0079
2888.00,0.0079
2887.00,0.0079
2886.00,0.0079
2885.00,0.0080
2884.00,0.0080
2883.00,0.0080
2882.00,0.0080
2881.00,0.0080
2880.00,0.0080
2879.00,0.0080
2878.00,0.0079
2877.00,0.0079
2876.00,0.0078
2875.00,0.0078
2874.00,0.0077
2873.00,0.0076
2872.00,0.0076
2871.00,0.0076
2870.00,0.0076
2869.00,0.0076
2868.00,0.0076
2867.00,0.0075
2866.00,0.0075
2865.00,0.0075
2864.00,0.0075
2863.00,0.0076
2862.00,0.0076
2861.00,0.0075
2860.00,0.0075
2859.00,0.0074
2858.00,0.0073
2857.00,0.0073
2856.00,0.0072
2855.00,0.0072
2854.00,0.0072
2853.00,0.0072
2852.00,0.0072
2851.00,0.0071
2850.00,0.0071
2849.00,0.0071
2848.00,0.0071
2847.00,0.0072
2846.00,0.0073
2845.00,0.0073
2844.00,0.0074
2843.00,0.0074
2842.00,0.0075
2841.00,0.0075
2840.00,0.0075
2839.00,0.0075
2838.00,0.0076
2837.00,0.0076
2836.00,0.0076
2835.00,0.0075
2834.00,0.0075
2833.00,0.0074
2832.00,0.0074
2831.00,0.0074
2830.00,0.0074
2829.00,0.0074
2828.00,0.0074
2827.00,0.0074
2826.00,0.0074
2825.00,0.0074
2824.00,0.0074
2823.00,0.0073
2822.00,0.0073
2821.00,0.0073
2820.00,0.0073
2819.00,0.0073
2818.00,0.0073
2817.00,0.0072
2816.00,0.0072
2815.00,0.0072
2814.00,0.0072
2813.00,0.0072
2812.00,0.0072
2811.00,0.0071
2810.00,0.0071
2809.00,0.0071
2808.00,0.0071
2807.00,0.0071
2806.00,0.0071
2805.00,0.0071
2804.00,0.0070
2803.00,0.0070
2802.00,0.0070
2801.00,0.0070
2800.00,0.0070
2799.00,0.0070
2798.00,0.0070
2797.00,0.0069
2796.00,0.0069
2795.00,0.0068
2794.00,0.0068
2793.00,0.0068
2792.00,0.0068
2791.00,0.0068
2790.00,0.0068
2789.00,0.0069
2788.00,0.0069
2787.00,0.0069
2786.00,0.0068
2785.00,0.0068
2784.00,0.0068
2783.00,0.0068
2782.00,0.0068
2781.00,0.0068
2780.00,0.0067
2779.00,0.0067
2778.00,0.0067
2777.00,0.0067
2776.00,0.0068
2775.00,0.0068
2774.00,0.0068
2773.00,0.0067
2772.00,0.0066
2771.00,0.0066
2770.00,0.0066
2769.00,0.0066
2768.00,0.0066
2767.00,0.0066
2766.00,0.0066
2765.00,0.0066
2764.00,0.0066
2763.00,0.0066
2762.00,0.0065
2761.00,0.0065
2760.00,0.0065
2759.00,0.0065
2758.00,0.0065
2757.00,0.0065
