Created as New Dataset,
cm-1,A
4000.00,0.0025
3999.00,0.0025
3998.00,0.0025
3997.00,0.0026
3996.00,0.0026
3995.00,0.0026
3994.00,0.0026
3993.00,0.0026
3992.00,0.0025
3991.00,0.0025
3990.00,0.0024
3989.00,0.0024
3988.00,0.0024
3987.00,0.0025
3986.00,0.0025
3985.00,0.0025
3984.00,0.0025
3983.00,0.0025
3982.00,0.0025
3981.00,0.0025
3980.00,0.0026
3979.00,0.0026
3978.00,0.0026
3977.00,0.0026
3976.00,0.0026
3975.00,0.0026
3974.00,0.0026
3973.00,0.0026
3972.00,0.0026
3971.00,0.0026
3970.00,0.0026
3969.00,0.0025
3968.00,0.0025
3967.00,0.0025
3966.00,0.0025
3965.00,0.0026
3964.00,0.0026
3963.00,0.0026
3962.00,0.0027
3961.00,0.0027
3960.00,0.0027
3959.00,0.0028
3958.00,0.0028
3957.00,0.0027
3956.00,0.0027
3955.00,0.0027
3954.00,0.0027
3953.00,0.0028
3952.00,0.0029
3951.00,0.0029
3950.00,0.0029
3949.00,0.0029
3948.00,0.0029
3947.00,0.0029
3946.00,0.0030
3945.00,0.0031
3944.00,0.0031
3943.00,0.0030
3942.00,0.0030
3941.00,0.0029
3940.00,0.0029
3939.00,0.0028
3938.00,0.0027
3937.00,0.0027
3936.00,0.0027
3935.00,0.0028
3934.00,0.0029
3933.00,0.0030
3932.00,0.0030
3931.00,0.0030
3930.00,0.0030
3929.00,0.0031
3928.00,0.0031
3927.00,0.0032
3926.00,0.0032
3925.00,0.0031
3924.00,0.0030
3923.00,0.0030
3922.00,0.0030
3921.00,0.0030
3920.00,0.0030
3919.00,0.0029
3918.00,0.0029
3917.00,0.0029
3916.00,0.0029
3915.00,0.0029
3914.00,0.0029
3913.00,0.0028
3912.00,0.0027
3911.00,0.0026
3910.00,0.0027
3909.00,0.0028
3908.00,0.0029
3907.00,0.0031
3906.00,0.0032
3905.00,0.0033
3904.00,0.0034
3903.00,0.0035
3902.00,0.0038
3901.00,0.0039
3900.00,0.0038
3899.00,0.0036
3898.00,0.0035
3897.00,0.0034
3896.00,0.0033
3895.00,0.0033
3894.00,0.0033
3893.00,0.0032
3892.00,0.0031
3891.00,0.0030
3890.00,0.0030
3889.00,0.0032
3888.00,0.0034
3887.00,0.0035
3886.00,0.0033
3885.00,0.0033
3884.00,0.0035
3883.00,0.0039
3882.00,0.0040
3881.00,0.0037
3880.00,0.0034
3879.00,0.0032
3878.00,0.0033
3877.00,0.0035
3876.00,0.0036
3875.00,0.0034
3874.00,0.0033
3873.00,0.0034
3872.00,0.0037
3871.00,0.0037
3870.00,0.0035
3869.00,0.0034
3868.00,0.0036
3867.00,0.0038
3866.00,0.0038
3865.00,0.0036
3864.00,0.0034
3863.00,0.0034
3862.00,0.0034
3861.00,0.0034
3860.00,0.0033
3859.00,0.0032
3858.00,0.0032
3857.00,0.0034
3856.00,0.0036
3855.00,0.0037
3854.00,0.0035
3853.00,0.0036
3852.00,0.0037
3851.00,0.0038
3850.00,0.0037
3849.00,0.0034
3848.00,0.0032
3847.00,0.0031
3846.00,0.0031
3845.00,0.0031
3844.00,0.0032
3843.00,0.0033
3842.00,0.0035
3841.00,0.0037
3840.00,0.0038
3839.00,0.0038
3838.00,0.0038
3837.00,0.0038
3836.00,0.0037
3835.00,0.0037
3834.00,0.0037
3833.00,0.0035
3832.00,0.0033
3831.00,0.0032
3830.00,0.0032
3829.00,0.0033
3828.00,0.0034
3827.00,0.0032
3826.00,0.0031
3825.00,0.0032
3824.00,0.0035
3823.00,0.0037
3822.00,0.0036
3821.00,0.0033
3820.00,0.0033
3819.00,0.0036
3818.00,0.0038
3817.00,0.0037
3816.00,0.0033
3815.00,0.0031
3814.00,0.0031
3813.00,0.0031
3812.00,0.0030
3811.00,0.0028
3810.00,0.0028
3809.00,0.0029
3808.00,0.0029
3807.00,0.0028
3806.00,0.0028
3805.00,0.0031
3804.00,0.0036
3803.00,0.0037
3802.00,0.0035
3801.00,0.0033
3800.00,0.0034
3799.00,0.0036
3798.00,0.0037
3797.00,0.0034
3796.00,0.0031
3795.00,0.0030
3794.00,0.0030
3793.00,0.0030
3792.00,0.0030
3791.00,0.0029
3790.00,0.0028
3789.00,0.0029
3788.00,0.0029
3787.00,0.0029
3786.00,0.0029
3785.00,0.0029
3784.00,0.0029
3783.00,0.0030
3782.00,0.0032
3781.00,0.0032
3780.00,0.0031
3779.00,0.0029
3778.00,0.0029
3777.00,0.0030
3776.00,0.0030
3775.00,0.0029
3774.00,0.0028
3773.00,0.0028
3772.00,0.0029
3771.00,0.0029
3770.00,0.0028
3769.00,0.0030
3768.00,0.0032
3767.00,0.0034
3766.00,0.0034
3765.00,0.0032
3764.00,0.0031
3763.00,0.0032
3762.00,0.0034
3761.00,0.0034
3760.00,0.0034
3759.00,0.0034
3758.00,0.0034
3757.00,0.0034
3756.00,0.0034
3755.00,0.0035
3754.00,0.0035
3753.00,0.0034
3752.00,0.0032
3751.00,0.0033
3750.00,0.0035
3749.00,0.0037
3748.00,0.0039
3747.00,0.0042
3746.00,0.0043
3745.00,0.0041
3744.00,0.0038
3743.00,0.0038
3742.00,0.0039
3741.00,0.0038
3740.00,0.0036
3739.00,0.0035
3738.00,0.0036
3737.00,0.0038
3736.00,0.0039
3735.00,0.0041
3734.00,0.0043
3733.00,0.0043
3732.00,0.0041
3731.00,0.0039
3730.00,0.0038
3729.00,0.0039
3728.00,0.0040
3727.00,0.0040
3726.00,0.0040
3725.00,0.0042
3724.00,0.0045
3723.00,0.0046
3722.00,0.0047
3721.00,0.0048
3720.00,0.0049
3719.00,0.0049
3718.00,0.0049
3717.00,0.0050
3716.00,0.0052
3715.00,0.0055
3714.00,0.0059
3713.00,0.0062
3712.00,0.0067
3711.00,0.0072
3710.00,0.0078
3709.00,0.0082
3708.00,0.0084
3707.00,0.0086
3706.00,0.0088
3705.00,0.0092
3704.00,0.0098
3703.00,0.0104
3702.00,0.0111
3701.00,0.0116
3700.00,0.0121
3699.00,0.0124
3698.00,0.0126
3697.00,0.0127
3696.00,0.0128
3695.00,0.0129
3694.00,0.0130
3693.00,0.0131
3692.00,0.0131
3691.00,0.0131
3690.00,0.0130
3689.00,0.0130
3688.00,0.0128
3687.00,0.0125
3686.00,0.0121
3685.00,0.0117
3684.00,0.0112
3683.00,0.0108
3682.00,0.0104
3681.00,0.0102
3680.00,0.0099
3679.00,0.0098
3678.00,0.0100
3677.00,0.0103
3676.00,0.0106
3675.00,0.0107
3674.00,0.0110
3673.00,0.0112
3672.00,0.0113
3671.00,0.0111
3670.00,0.0111
3669.00,0.0112
3668.00,0.0115
3667.00,0.0115
3666.00,0.0114
3665.00,0.0112
3664.00,0.0112
3663.00,0.0112
3662.00,0.0113
3661.00,0.0115
3660.00,0.0117
3659.00,0.0121
3658.00,0.0125
3657.00,0.0129
3656.00,0.0134
3655.00,0.0138
3654.00,0.0142
3653.00,0.0146
3652.00,0.0147
3651.00,0.0147
3650.00,0.0150
3649.00,0.0158
3648.00,0.0164
3647.00,0.0165
3646.00,0.0161
3645.00,0.0156
3644.00,0.0152
3643.00,0.0148
3642.00,0.0144
3641.00,0.0142
3640.00,0.0141
3639.00,0.0140
3638.00,0.0139
3637.00,0.0140
3636.00,0.0140
3635.00,0.0140
3634.00,0.0138
3633.00,0.0138
3632.00,0.0140
3631.00,0.0143
3630.00,0.0148
3629.00,0.0155
3628.00,0.0162
3627.00,0.0169
3626.00,0.0173
3625.00,0.0176
3624.00,0.0179
3623.00,0.0183
3622.00,0.0190
3621.00,0.0195
3620.00,0.0199
3619.00,0.0200
3618.00,0.0197
3617.00,0.0193
3616.00,0.0187
3615.00,0.0180
3614.00,0.0174
3613.00,0.0169
3612.00,0.0167
3611.00,0.0166
3610.00,0.0165
3609.00,0.0165
3608.00,0.0164
3607.00,0.0164
3606.00,0.0164
3605.00,0.0163
3604.00,0.0161
3603.00,0.0160
3602.00,0.0159
3601.00,0.0159
3600.00,0.0160
3599.00,0.0160
3598.00,0.0161
3597.00,0.0161
3596.00,0.0162
3595.00,0.0163
3594.00,0.0163
3593.00,0.0163
3592.00,0.0162
3591.00,0.0162
3590.00,0.0163
3589.00,0.0166
3588.00,0.0169
3587.00,0.0172
3586.00,0.0174
3585.00,0.0174
3584.00,0.0172
3583.00,0.0170
3582.00,0.0169
3581.00,0.0169
3580.00,0.0169
3579.00,0.0170
3578.00,0.0170
3577.00,0.0170
3576.00,0.0170
3575.00,0.0170
3574.00,0.0170
3573.00,0.0170
3572.00,0.0171
3571.00,0.0173
3570.00,0.0175
3569.00,0.0178
3568.00,0.0182
3567.00,0.0186
3566.00,0.0189
3565.00,0.0191
3564.00,0.0190
3563.00,0.0187
3562.00,0.0185
3561.00,0.0184
3560.00,0.0183
3559.00,0.0183
3558.00,0.0183
3557.00,0.0183
3556.00,0.0183
3555.00,0.0184
3554.00,0.0185
3553.00,0.0186
3552.00,0.0188
3551.00,0.0190
3550.00,0.0191
3549.00,0.0191
3548.00,0.0192
3547.00,0.0194
3546.00,0.0196
3545.00,0.0198
3544.00,0.0198
3543.00,0.0198
3542.00,0.0197
3541.00,0.0196
3540.00,0.0196
3539.00,0.0197
3538.00,0.0198
3537.00,0.0199
3536.00,0.0201
3535.00,0.0201
3534.00,0.0202
3533.00,0.0202
3532.00,0.0203
3531.00,0.0203
3530.00,0.0205
3529.00,0.0206
3528.00,0.0208
3527.00,0.0210
3526.00,0.0211
3525.00,0.0212
3524.00,0.0213
3523.00,0.0213
3522.00,0.0213
3521.00,0.0213
3520.00,0.0214
3519.00,0.0214
3518.00,0.0214
3517.00,0.0215
3516.00,0.0216
3515.00,0.0217
3514.00,0.0218
3513.00,0.0218
3512.00,0.0219
3511.00,0.0221
3510.00,0.0222
3509.00,0.0223
3508.00,0.0223
3507.00,0.0224
3506.00,0.0224
3505.00,0.0225
3504.00,0.0226
3503.00,0.0227
3502.00,0.0229
3501.00,0.0230
3500.00,0.0230
3499.00,0.0230
3498.00,0.0230
3497.00,0.0230
3496.00,0.0231
3495.00,0.0232
3494.00,0.0233
3493.00,0.0233
3492.00,0.0234
3491.00,0.0234
3490.00,0.0234
3489.00,0.0235
3488.00,0.0236
3487.00,0.0237
3486.00,0.0239
3485.00,0.0240
3484.00,0.0241
3483.00,0.0242
3482.00,0.0243
3481.00,0.0244
3480.00,0.0244
3479.00,0.0244
3478.00,0.0245
3477.00,0.0245
3476.00,0.0246
3475.00,0.0247
3474.00,0.0248
3473.00,0.0249
3472.00,0.0250
3471.00,0.0251
3470.00,0.0251
3469.00,0.0252
3468.00,0.0252
3467.00,0.0252
3466.00,0.0252
3465.00,0.0253
3464.00,0.0254
3463.00,0.0255
3462.00,0.0256
3461.00,0.0257
3460.00,0.0257
3459.00,0.0257
3458.00,0.0258
3457.00,0.0258
3456.00,0.0259
3455.00,0.0259
3454.00,0.0260
3453.00,0.0261
3452.00,0.0262
3451.00,0.0262
3450.00,0.0263
3449.00,0.0264
3448.00,0.0265
3447.00,0.0266
3446.00,0.0267
3445.00,0.0268
3444.00,0.0268
3443.00,0.0268
3442.00,0.0269
3441.00,0.0269
3440.00,0.0270
3439.00,0.0270
3438.00,0.0270
3437.00,0.0270
3436.00,0.0270
3435.00,0.0271
3434.00,0.0272
3433.00,0.0273
3432.00,0.0274
3431.00,0.0274
3430.00,0.0275
3429.00,0.0275
3428.00,0.0275
3427.00,0.0275
3426.00,0.0276
3425.00,0.0277
3424.00,0.0278
3423.00,0.0278
3422.00,0.0279
3421.00,0.0280
3420.00,0.0281
3419.00,0.0281
3418.00,0.0282
3417.00,0.0282
3416.00,0.0282
3415.00,0.0282
3414.00,0.0283
3413.00,0.0284
3412.00,0.0285
3411.00,0.0285
3410.00,0.0285
3409.00,0.0286
3408.00,0.0286
3407.00,0.0286
3406.00,0.0287
3405.00,0.0287
3404.00,0.0288
3403.00,0.0288
3402.00,0.0289
3401.00,0.0289
3400.00,0.0289
3399.00,0.0289
3398.00,0.0289
3397.00,0.0289
3396.00,0.0290
3395.00,0.0290
3394.00,0.0291
3393.00,0.0292
3392.00,0.0293
3391.00,0.0294
3390.00,0.0294
3389.00,0.0293
3388.00,0.0293
3387.00,0.0293
3386.00,0.0293
3385.00,0.0294
3384.00,0.0294
3383.00,0.0294
3382.00,0.0294
3381.00,0.0294
3380.00,0.0294
3379.00,0.0295
3378.00,0.0295
3377.00,0.0296
3376.00,0.0296
3375.00,0.0297
3374.00,0.0297
3373.00,0.0298
3372.00,0.0298
3371.00,0.0298
3370.00,0.0298
3369.00,0.0297
3368.00,0.0297
3367.00,0.0298
3366.00,0.0299
3365.00,0.0299
3364.00,0.0299
3363.00,0.0299
3362.00,0.0299
3361.00,0.0299
3360.00,0.0299
3359.00,0.0299
3358.00,0.0299
3357.00,0.0300
3356.00,0.0300
3355.00,0.0300
3354.00,0.0300
3353.00,0.0300
3352.00,0.0300
3351.00,0.0300
3350.00,0.0300
3349.00,0.0300
3348.00,0.0299
3347.00,0.0299
3346.00,0.0299
3345.00,0.0300
3344.00,0.0300
3343.00,0.0301
3342.00,0.0301
3341.00,0.0300
3340.00,0.0300
3339.00,0.0300
3338.00,0.0301
3337.00,0.0301
3336.00,0.0302
3335.00,0.0302
3334.00,0.0302
3333.00,0.0302
3332.00,0.0301
3331.00,0.0301
3330.00,0.0301
3329.00,0.0301
3328.00,0.0301
3327.00,0.0302
3326.00,0.0302
3325.00,0.0303
3324.00,0.0303
3323.00,0.0303
3322.00,0.0303
3321.00,0.0302
3320.00,0.0301
3319.00,0.0301
3318.00,0.0301
3317.00,0.0302
3316.00,0.0302
3315.00,0.0302
3314.00,0.0302
3313.00,0.0302
3312.00,0.0302
3311.00,0.0302
3310.00,0.0302
3309.00,0.0303
3308.00,0.0303
3307.00,0.0303
3306.00,0.0303
3305.00,0.0303
3304.00,0.0303
3303.00,0.0303
3302.00,0.0302
3301.00,0.0302
3300.00,0.0302
3299.00,0.0302
3298.00,0.0302
3297.00,0.0302
3296.00,0.0302
3295.00,0.0302
3294.00,0.0302
3293.00,0.0301
3292.00,0.0302
3291.00,0.0302
3290.00,0.0302
3289.00,0.0302
3288.00,0.0302
3287.00,0.0302
3286.00,0.0302
3285.00,0.0302
3284.00,0.0302
3283.00,0.0302
3282.00,0.0301
3281.00,0.0301
3280.00,0.0301
3279.00,0.0301
3278.00,0.0301
3277.00,0.0301
3276.00,0.0301
3275.00,0.0301
3274.00,0.0302
3273.00,0.0302
3272.00,0.0302
3271.00,0.0301
3270.00,0.0300
3269.00,0.0300
3268.00,0.0299
3267.00,0.0298
3266.00,0.0298
3265.00,0.0298
3264.00,0.0298
3263.00,0.0298
3262.00,0.0298
3261.00,0.0298
3260.00,0.0298
3259.00,0.0298
3258.00,0.0298
3257.00,0.0298
3256.00,0.0298
3255.00,0.0298
3254.00,0.0297
3253.00,0.0296
3252.00,0.0295
3251.00,0.0294
3250.00,0.0294
3249.00,0.0295
3248.00,0.0295
3247.00,0.0296
3246.00,0.0296
3245.00,0.0296
3244.00,0.0297
3243.00,0.0296
3242.00,0.0295
3241.00,0.0294
3240.00,0.0294
3239.00,0.0293
3238.00,0.0293
3237.00,0.0293
3236.00,0.0293
3235.00,0.0293
3234.00,0.0293
3233.00,0.0293
3232.00,0.0293
3231.00,0.0293
3230.00,0.0293
3229.00,0.0292
3228.00,0.0291
3227.00,0.0290
3226.00,0.0290
3225.00,0.0289
3224.00,0.0289
3223.00,0.0288
3222.00,0.0288
3221.00,0.0288
3220.00,0.0288
3219.00,0.0288
3218.00,0.0288
3217.00,0.0287
3216.00,0.0286
3215.00,0.0285
3214.00,0.0285
3213.00,0.0285
3212.00,0.0285
3211.00,0.0285
3210.00,0.0284
3209.00,0.0283
3208.00,0.0283
3207.00,0.0283
3206.00,0.0283
3205.00,0.0283
3204.00,0.0282
3203.00,0.0281
3202.00,0.0281
3201.00,0.0281
3200.00,0.0281
3199.00,0.0280
3198.00,0.0280
3197.00,0.0279
3196.00,0.0279
3195.00,0.0278
3194.00,0.0278
3193.00,0.0277
3192.00,0.0277
3191.00,0.0276
3190.00,0.0275
3189.00,0.0275
3188.00,0.0275
3187.00,0.0275
3186.00,0.0274
3185.00,0.0274
3184.00,0.0273
3183.00,0.0273
3182.00,0.0272
3181.00,0.0272
3180.00,0.0271
3179.00,0.0271
3178.00,0.0270
3177.00,0.0270
3176.00,0.0270
3175.00,0.0270
3174.00,0.0269
3173.00,0.0268
3172.00,0.0268
3171.00,0.0267
3170.00,0.0266
3169.00,0.0265
3168.00,0.0264
3167.00,0.0264
3166.00,0.0263
3165.00,0.0263
3164.00,0.0263
3163.00,0.0262
3162.00,0.0261
3161.00,0.0261
3160.00,0.0260
3159.00,0.0261
3158.00,0.0260
3157.00,0.0260
3156.00,0.0259
3155.00,0.0258
3154.00,0.0257
3153.00,0.0257
3152.00,0.0256
3151.00,0.0256
3150.00,0.0255
3149.00,0.0254
3148.00,0.0254
3147.00,0.0254
3146.00,0.0253
3145.00,0.0253
3144.00,0.0252
3143.00,0.0252
3142.00,0.0251
3141.00,0.0250
3140.00,0.0250
3139.00,0.0249
3138.00,0.0249
3137.00,0.0248
3136.00,0.0248
3135.00,0.0247
3134.00,0.0246
3133.00,0.0245
3132.00,0.0245
3131.00,0.0245
3130.00,0.0244
3129.00,0.0244
3128.00,0.0244
3127.00,0.0243
3126.00,0.0242
3125.00,0.0242
3124.00,0.0242
3123.00,0.0242
3122.00,0.0242
3121.00,0.0241
3120.00,0.0240
3119.00,0.0239
3118.00,0.0239
3117.00,0.0238
3116.00,0.0238
3115.00,0.0237
3114.00,0.0237
3113.00,0.0237
3112.00,0.0236
3111.00,0.0235
3110.00,0.0235
3109.00,0.0234
3108.00,0.0233
3107.00,0.0233
3106.00,0.0232
3105.00,0.0232
3104.00,0.0231
3103.00,0.0231
3102.00,0.0231
3101.00,0.0231
3100.00,0.0231
3099.00,0.0230
3098.00,0.0230
3097.00,0.0230
3096.00,0.0229
3095.00,0.0229
3094.00,0.0229
3093.00,0.0228
3092.00,0.0227
3091.00,0.0227
3090.00,0.0226
3089.00,0.0226
3088.00,0.0226
3087.00,0.0225
3086.00,0.0225
3085.00,0.0224
3084.00,0.0224
3083.00,0.0223
3082.00,0.0223
3081.00,0.0223
3080.00,0.0222
3079.00,0.0222
3078.00,0.0221
3077.00,0.0221
3076.00,0.0220
3075.00,0.0220
3074.00,0.0219
3073.00,0.0219
3072.00,0.0218
3071.00,0.0218
3070.00,0.0218
3069.00,0.0217
3068.00,0.0217
3067.00,0.0216
3066.00,0.0216
3065.00,0.0216
3064.00,0.0215
3063.00,0.0215
3062.00,0.0214
3061.00,0.0214
3060.00,0.0213
3059.00,0.0213
3058.00,0.0212
3057.00,0.0212
3056.00,0.0211
3055.00,0.0211
3054.00,0.0210
3053.00,0.0210
3052.00,0.0209
3051.00,0.0208
3050.00,0.0207
3049.00,0.0207
3048.00,0.0206
3047.00,0.0206
3046.00,0.0205
3045.00,0.0205
3044.00,0.0205
3043.00,0.0205
3042.00,0.0205
3041.00,0.0204
3040.00,0.0203
3039.00,0.0203
3038.00,0.0202
3037.00,0.0202
3036.00,0.0201
3035.00,0.0201
3034.00,0.0200
3033.00,0.0200
3032.00,0.0200
3031.00,0.0199
3030.00,0.0199
3029.00,0.0198
3028.00,0.0197
3027.00,0.0196
3026.00,0.0195
3025.00,0.0195
3024.00,0.0195
3023.00,0.0195
3022.00,0.0195
3021.00,0.0194
3020.00,0.0194
3019.00,0.0193
3018.00,0.0193
3017.00,0.0192
3016.00,0.0192
3015.00,0.0192
3014.00,0.0192
3013.00,0.0191
3012.00,0.0191
3011.00,0.0191
3010.00,0.0190
3009.00,0.0189
3008.00,0.0189
3007.00,0.0188
3006.00,0.0188
3005.00,0.0187
3004.00,0.0187
3003.00,0.0187
3002.00,0.0186
3001.00,0.0186
3000.00,0.0185
2999.00,0.0185
2998.00,0.0185
2997.00,0.0185
2996.00,0.0185
2995.00,0.0185
2994.00,0.0185
2993.00,0.0184
2992.00,0.0184
2991.00,0.0183
2990.00,0.0183
2989.00,0.0182
2988.00,0.0182
2987.00,0.0182
2986.00,0.0181
2985.00,0.0181
2984.00,0.0180
2983.00,0.0180
2982.00,0.0179
2981.00,0.0179
2980.00,0.0179
2979.00,0.0179
2978.00,0.0179
2977.00,0.0179
2976.00,0.0180
2975.00,0.0180
2974.00,0.0179
2973.00,0.0179
2972.00,0.0179
2971.00,0.0178
2970.00,0.0178
2969.00,0.0178
2968.00,0.0178
2967.00,0.0178
2966.00,0.0178
2965.00,0.0178
2964.00,0.0177
2963.00,0.0177
2962.00,0.0177
2961.00,0.0177
2960.00,0.0177
2959.00,0.0178
2958.00,0.0178
2957.00,0.0178
2956.00,0.0178
2955.00,0.0179
2954.00,0.0180
2953.00,0.0181
2952.00,0.0181
2951.00,0.0182
2950.00,0.0182
2949.00,0.0182
2948.00,0.0183
2947.00,0.0184
2946.00,0.0185
2945.00,0.0186
2944.00,0.0186
2943.00,0.0187
2942.00,0.0188
2941.00,0.0189
2940.00,0.0189
2939.00,0.0189
2938.00,0.0190
2937.00,0.0190
2936.00,0.0190
2935.00,0.0190
2934.00,0.0190
2933.00,0.0190
2932.00,0.0190
2931.00,0.0190
2930.00,0.0190
2929.00,0.0190
2928.00,0.0190
2927.00,0.0190
2926.00,0.0190
2925.00,0.0190
2924.00,0.0190
2923.00,0.0190
2922.00,0.0190
2921.00,0.0190
2920.00,0.0189
2919.00,0.0187
2918.00,0.0185
2917.00,0.0183
2916.00,0.0182
2915.00,0.0182
2914.00,0.0181
2913.00,0.0181
2912.00,0.0181
2911.00,0.0180
2910.00,0.0180
2909.00,0.0179
2908.00,0.0179
2907.00,0.0178
2906.00,0.0178
2905.00,0.0177
2904.00,0.0176
2903.00,0.0176
2902.00,0.0175
2901.00,0.0174
2900.00,0.0174
2899.00,0.0174
2898.00,0.0173
2897.00,0.0172
2896.00,0.0171
2895.00,0.0171
2894.00,0.0170
2893.00,0.0170
2892.00,0.0170
2891.00,0.0169
2890.00,0.0169
2889.00,0.0169
2888.00,0.0168
2887.00,0.0168
2886.00,0.0168
2885.00,0.0167
2884.00,0.0167
2883.00,0.0167
2882.00,0.0167
2881.00,0.0166
2880.00,0.0165
2879.00,0.0165
2878.00,0.0164
2877.00,0.0163
2876.00,0.0163
2875.00,0.0162
2874.00,0.0161
2873.00,0.0160
2872.00,0.0159
2871.00,0.0159
2870.00,0.0158
2869.00,0.0158
2868.00,0.0158
2867.00,0.0158
2866.00,0.0158
2865.00,0.0158
2864.00,0.0158
2863.00,0.0158
2862.00,0.0159
2861.00,0.0159
2860.00,0.0159
2859.00,0.0160
2858.00,0.0160
2857.00,0.0161
2856.00,0.0161
2855.00,0.0162
2854.00,0.0162
2853.00,0.0162
2852.00,0.0162
2851.00,0.0161
2850.00,0.0159
2849.00,0.0158
2848.00,0.0156
2847.00,0.0154
2846.00,0.0152
2845.00,0.0151
2844.00,0.0150
2843.00,0.0150
2842.00,0.0149
2841.00,0.0149
2840.00,0.0148
2839.00,0.0147
2838.00,0.0147
2837.00,0.0146
2836.00,0.0145
2835.00,0.0144
2834.00,0.0143
2833.00,0.0143
2832.00,0.0142
2831.00,0.0142
2830.00,0.0141
2829.00,0.0141
2828.00,0.0140
2827.00,0.0140
2826.00,0.0140
2825.00,0.0139
2824.00,0.0138
2823.00,0.0138
2822.00,0.0137
2821.00,0.0137
2820.00,0.0136
2819.00,0.0136
2818.00,0.0136
2817.00,0.0135
2816.00,0.0134
2815.00,0.0134
2814.00,0.0133
2813.00,0.0133
2812.00,0.0133
2811.00,0.0133
2810.00,0.0132
2809.00,0.0132
2808.00,0.0132
2807.00,0.0131
2806.00,0.0130
2805.00,0.0130
2804.00,0.0130
2803.00,0.0129
2802.00,0.0129
2801.00,0.0129
2800.00,0.0128
2799.00,0.0128
2798.00,0.0128
2797.00,0.0127
2796.00,0.0127
2795.00,0.0126
2794.00,0.0126
2793.00,0.0126
2792.00,0.0126
2791.00,0.0126
2790.00,0.0126
2789.00,0.0125
2788.00,0.0125
2787.00,0.0125
2786.00,0.0124
2785.00,0.0124
2784.00,0.0123
2783.00,0.0123
2782.00,0.0123
2781.00,0.0123
2780.00,0.0122
2779.00,0.0122
2778.00,0.0121
2777.00,0.0122
2776.00,0.0122
2775.00,0.0122
2774.00,0.0122
2773.00,0.0121
2772.00,0.0121
2771.00,0.0120
2770.00,0.0120
2769.00,0.0120
2768.00,0.0119
2767.00,0.0119
2766.00,0.0118
2765.00,0.0118
2764.00,0.0118
2763.00,0.0118
2762.00,0.0117
2761.00,0.0117
2760.00,0.0117
2759.00,0.0117
2758.00,0.0117
2757.00,0.0117
2756.00,0.0117
2755.00,0.0116
2754.00,0.0116
