Created as New Dataset,
cm-1,A
4000.00,0.0004
3999.00,0.0004
3998.00,0.0004
3997.00,0.0003
3996.00,0.0004
3995.00,0.0005
3994.00,0.0005
3993.00,0.0005
3992.00,0.0004
3991.00,0.0004
3990.00,0.0003
3989.00,0.0003
3988.00,0.0003
3987.00,0.0003
3986.00,0.0004
3985.00,0.0004
3984.00,0.0004
3983.00,0.0004
3982.00,0.0004
3981.00,0.0005
3980.00,0.0005
3979.00,0.0004
3978.00,0.0004
3977.00,0.0004
3976.00,0.0004
3975.00,0.0005
3974.00,0.0005
3973.00,0.0006
3972.00,0.0005
3971.00,0.0005
3970.00,0.0004
3969.00,0.0004
3968.00,0.0003
3967.00,0.0003
3966.00,0.0004
3965.00,0.0004
3964.00,0.0005
3963.00,0.0005
3962.00,0.0005
3961.00,0.0005
3960.00,0.0005
3959.00,0.0005
3958.00,0.0005
3957.00,0.0005
3956.00,0.0005
3955.00,0.0005
3954.00,0.0005
3953.00,0.0005
3952.00,0.0005
3951.00,0.0005
3950.00,0.0006
3949.00,0.0006
3948.00,0.0006
3947.00,0.0007
3946.00,0.0008
3945.00,0.0009
3944.00,0.0009
3943.00,0.0008
3942.00,0.0007
3941.00,0.0007
3940.00,0.0007
3939.00,0.0007
3938.00,0.0006
3937.00,0.0005
3936.00,0.0005
3935.00,0.0006
3934.00,0.0006
3933.00,0.0007
3932.00,0.0008
3931.00,0.0008
3930.00,0.0009
3929.00,0.0009
3928.00,0.0009
3927.00,0.0009
3926.00,0.0009
3925.00,0.0008
3924.00,0.0008
3923.00,0.0008
3922.00,0.0008
3921.00,0.0008
3920.00,0.0008
3919.00,0.0008
3918.00,0.0008
3917.00,0.0008
3916.00,0.0008
3915.00,0.0007
3914.00,0.0007
3913.00,0.0007
3912.00,0.0006
3911.00,0.0006
3910.00,0.0006
3909.00,0.0006
3908.00,0.0007
3907.00,0.0008
3906.00,0.0009
3905.00,0.0009
3904.00,0.0010
3903.00,0.0012
3902.00,0.0014
3901.00,0.0015
3900.00,0.0015
3899.00,0.0013
3898.00,0.0011
3897.00,0.0010
3896.00,0.0009
3895.00,0.0009
3894.00,0.0010
3893.00,0.0009
3892.00,0.0009
3891.00,0.0008
3890.00,0.0007
3889.00,0.0009
3888.00,0.0010
3887.00,0.0011
3886.00,0.0009
3885.00,0.0009
3884.00,0.0011
3883.00,0.0014
3882.00,0.0015
3881.00,0.0014
3880.00,0.0011
3879.00,0.0009
3878.00,0.0010
3877.00,0.0011
3876.00,0.0011
3875.00,0.0010
3874.00,0.0009
3873.00,0.0009
3872.00,0.0011
3871.00,0.0012
3870.00,0.0010
3869.00,0.0009
3868.00,0.0010
3867.00,0.0012
3866.00,0.0013
3865.00,0.0011
3864.00,0.0010
3863.00,0.0010
3862.00,0.0011
3861.00,0.0010
3860.00,0.0009
3859.00,0.0008
3858.00,0.0007
3857.00,0.0008
3856.00,0.0009
3855.00,0.0008
3854.00,0.0007
3853.00,0.0007
3852.00,0.0008
3851.00,0.0010
3850.00,0.0011
3849.00,0.0010
3848.00,0.0008
3847.00,0.0007
3846.00,0.0007
3845.00,0.0007
3844.00,0.0006
3843.00,0.0007
3842.00,0.0007
3841.00,0.0009
3840.00,0.0010
3839.00,0.0011
3838.00,0.0011
3837.00,0.0011
3836.00,0.0012
3835.00,0.0012
3834.00,0.0012
3833.00,0.0011
3832.00,0.0009
3831.00,0.0008
3830.00,0.0008
3829.00,0.0009
3828.00,0.0009
3827.00,0.0008
3826.00,0.0006
3825.00,0.0006
3824.00,0.0009
3823.00,0.0010
3822.00,0.0009
3821.00,0.0007
3820.00,0.0007
3819.00,0.0008
3818.00,0.0010
3817.00,0.0010
3816.00,0.0007
3815.00,0.0006
3814.00,0.0007
3813.00,0.0008
3812.00,0.0007
3811.00,0.0006
3810.00,0.0005
3809.00,0.0005
3808.00,0.0005
3807.00,0.0003
3806.00,0.0003
3805.00,0.0004
3804.00,0.0007
3803.00,0.0009
3802.00,0.0008
3801.00,0.0007
3800.00,0.0008
3799.00,0.0010
3798.00,0.0011
3797.00,0.0010
3796.00,0.0008
3795.00,0.0007
3794.00,0.0007
3793.00,0.0008
3792.00,0.0007
3791.00,0.0006
3790.00,0.0005
3789.00,0.0005
3788.00,0.0005
3787.00,0.0005
3786.00,0.0005
3785.00,0.0005
3784.00,0.0006
3783.00,0.0007
3782.00,0.0008
3781.00,0.0008
3780.00,0.0007
3779.00,0.0006
3778.00,0.0006
3777.00,0.0006
3776.00,0.0006
3775.00,0.0006
3774.00,0.0005
3773.00,0.0005
3772.00,0.0005
3771.00,0.0005
3770.00,0.0005
3769.00,0.0005
3768.00,0.0007
3767.00,0.0008
3766.00,0.0008
3765.00,0.0007
3764.00,0.0006
3763.00,0.0007
3762.00,0.0008
3761.00,0.0008
3760.00,0.0007
3759.00,0.0007
3758.00,0.0007
3757.00,0.0007
3756.00,0.0007
3755.00,0.0008
3754.00,0.0007
3753.00,0.0005
3752.00,0.0004
3751.00,0.0005
3750.00,0.0007
3749.00,0.0008
3748.00,0.0009
3747.00,0.0011
3746.00,0.0013
3745.00,0.0011
3744.00,0.0008
3743.00,0.0007
3742.00,0.0008
3741.00,0.0009
3740.00,0.0008
3739.00,0.0007
3738.00,0.0007
3737.00,0.0008
3736.00,0.0010
3735.00,0.0012
3734.00,0.0013
3733.00,0.0012
3732.00,0.0010
3731.00,0.0008
3730.00,0.0007
3729.00,0.0007
3728.00,0.0008
3727.00,0.0007
3726.00,0.0007
3725.00,0.0008
3724.00,0.0009
3723.00,0.0010
3722.00,0.0009
3721.00,0.0009
3720.00,0.0009
3719.00,0.0008
3718.00,0.0007
3717.00,0.0006
3716.00,0.0006
3715.00,0.0006
3714.00,0.0006
3713.00,0.0006
3712.00,0.0006
3711.00,0.0008
3710.00,0.0010
3709.00,0.0010
3708.00,0.0009
3707.00,0.0007
3706.00,0.0005
3705.00,0.0005
3704.00,0.0006
3703.00,0.0006
3702.00,0.0007
3701.00,0.0007
3700.00,0.0007
3699.00,0.0007
3698.00,0.0007
3697.00,0.0006
3696.00,0.0005
3695.00,0.0005
3694.00,0.0006
3693.00,0.0007
3692.00,0.0007
3691.00,0.0007
3690.00,0.0009
3689.00,0.0010
3688.00,0.0010
3687.00,0.0010
3686.00,0.0010
3685.00,0.0009
3684.00,0.0009
3683.00,0.0008
3682.00,0.0007
3681.00,0.0007
3680.00,0.0006
3679.00,0.0006
3678.00,0.0009
3677.00,0.0012
3676.00,0.0014
3675.00,0.0014
3674.00,0.0015
3673.00,0.0017
3672.00,0.0018
3671.00,0.0017
3670.00,0.0015
3669.00,0.0016
3668.00,0.0017
3667.00,0.0018
3666.00,0.0017
3665.00,0.0015
3664.00,0.0014
3663.00,0.0013
3662.00,0.0013
3661.00,0.0013
3660.00,0.0013
3659.00,0.0014
3658.00,0.0016
3657.00,0.0017
3656.00,0.0018
3655.00,0.0019
3654.00,0.0021
3653.00,0.0023
3652.00,0.0023
3651.00,0.0022
3650.00,0.0023
3649.00,0.0028
3648.00,0.0033
3647.00,0.0034
3646.00,0.0032
3645.00,0.0030
3644.00,0.0028
3643.00,0.0027
3642.00,0.0026
3641.00,0.0026
3640.00,0.0026
3639.00,0.0026
3638.00,0.0027
3637.00,0.0027
3636.00,0.0028
3635.00,0.0029
3634.00,0.0028
3633.00,0.0028
3632.00,0.0030
3631.00,0.0033
3630.00,0.0034
3629.00,0.0035
3628.00,0.0037
3627.00,0.0038
3626.00,0.0038
3625.00,0.0036
3624.00,0.0034
3623.00,0.0033
3622.00,0.0034
3621.00,0.0036
3620.00,0.0038
3619.00,0.0041
3618.00,0.0042
3617.00,0.0044
3616.00,0.0044
3615.00,0.0043
3614.00,0.0042
3613.00,0.0041
3612.00,0.0041
3611.00,0.0042
3610.00,0.0043
3609.00,0.0043
3608.00,0.0043
3607.00,0.0043
3606.00,0.0043
3605.00,0.0043
3604.00,0.0043
3603.00,0.0042
3602.00,0.0042
3601.00,0.0042
3600.00,0.0043
3599.00,0.0044
3598.00,0.0045
3597.00,0.0046
3596.00,0.0047
3595.00,0.0047
3594.00,0.0048
3593.00,0.0048
3592.00,0.0048
3591.00,0.0048
3590.00,0.0049
3589.00,0.0050
3588.00,0.0052
3587.00,0.0053
3586.00,0.0054
3585.00,0.0054
3584.00,0.0054
3583.00,0.0053
3582.00,0.0052
3581.00,0.0051
3580.00,0.0051
3579.00,0.0051
3578.00,0.0051
3577.00,0.0051
3576.00,0.0051
3575.00,0.0050
3574.00,0.0050
3573.00,0.0051
3572.00,0.0052
3571.00,0.0053
3570.00,0.0054
3569.00,0.0055
3568.00,0.0056
3567.00,0.0059
3566.00,0.0061
3565.00,0.0062
3564.00,0.0062
3563.00,0.0061
3562.00,0.0059
3561.00,0.0058
3560.00,0.0057
3559.00,0.0056
3558.00,0.0056
3557.00,0.0055
3556.00,0.0055
3555.00,0.0055
3554.00,0.0055
3553.00,0.0056
3552.00,0.0057
3551.00,0.0058
3550.00,0.0059
3549.00,0.0060
3548.00,0.0060
3547.00,0.0061
3546.00,0.0062
3545.00,0.0062
3544.00,0.0062
3543.00,0.0062
3542.00,0.0061
3541.00,0.0061
3540.00,0.0061
3539.00,0.0061
3538.00,0.0061
3537.00,0.0062
3536.00,0.0062
3535.00,0.0062
3534.00,0.0062
3533.00,0.0061
3532.00,0.0061
3531.00,0.0062
3530.00,0.0062
3529.00,0.0063
3528.00,0.0064
3527.00,0.0064
3526.00,0.0065
3525.00,0.0065
3524.00,0.0066
3523.00,0.0066
3522.00,0.0066
3521.00,0.0066
3520.00,0.0066
3519.00,0.0066
3518.00,0.0066
3517.00,0.0067
3516.00,0.0067
3515.00,0.0067
3514.00,0.0067
3513.00,0.0067
3512.00,0.0068
3511.00,0.0068
3510.00,0.0069
3509.00,0.0069
3508.00,0.0069
3507.00,0.0069
3506.00,0.0069
3505.00,0.0069
3504.00,0.0070
3503.00,0.0071
3502.00,0.0072
3501.00,0.0072
3500.00,0.0072
3499.00,0.0072
3498.00,0.0071
3497.00,0.0071
3496.00,0.0071
3495.00,0.0071
3494.00,0.0072
3493.00,0.0072
3492.00,0.0071
3491.00,0.0070
3490.00,0.0070
3489.00,0.0070
3488.00,0.0070
3487.00,0.0071
3486.00,0.0072
3485.00,0.0073
3484.00,0.0074
3483.00,0.0074
3482.00,0.0074
3481.00,0.0074
3480.00,0.0074
3479.00,0.0074
3478.00,0.0074
3477.00,0.0074
3476.00,0.0074
3475.00,0.0074
3474.00,0.0074
3473.00,0.0074
3472.00,0.0075
3471.00,0.0075
3470.00,0.0076
3469.00,0.0076
3468.00,0.0076
3467.00,0.0076
3466.00,0.0076
3465.00,0.0077
3464.00,0.0077
3463.00,0.0077
3462.00,0.0077
3461.00,0.0076
3460.00,0.0076
3459.00,0.0076
3458.00,0.0076
3457.00,0.0076
3456.00,0.0076
3455.00,0.0077
3454.00,0.0078
3453.00,0.0079
3452.00,0.0079
3451.00,0.0080
3450.00,0.0080
3449.00,0.0080
3448.00,0.0080
3447.00,0.0080
3446.00,0.0080
3445.00,0.0081
3444.00,0.0080
3443.00,0.0080
3442.00,0.0080
3441.00,0.0080
3440.00,0.0080
3439.00,0.0080
3438.00,0.0080
3437.00,0.0080
3436.00,0.0080
3435.00,0.0081
3434.00,0.0081
3433.00,0.0081
3432.00,0.0082
3431.00,0.0082
3430.00,0.0082
3429.00,0.0082
3428.00,0.0082
3427.00,0.0082
3426.00,0.0082
3425.00,0.0082
3424.00,0.0083
3423.00,0.0083
3422.00,0.0083
3421.00,0.0083
3420.00,0.0083
3419.00,0.0084
3418.00,0.0084
3417.00,0.0084
3416.00,0.0084
3415.00,0.0084
3414.00,0.0084
3413.00,0.0085
3412.00,0.0086
3411.00,0.0086
3410.00,0.0085
3409.00,0.0085
3408.00,0.0084
3407.00,0.0084
3406.00,0.0085
3405.00,0.0086
3404.00,0.0086
3403.00,0.0087
3402.00,0.0087
3401.00,0.0086
3400.00,0.0086
3399.00,0.0086
3398.00,0.0086
3397.00,0.0086
3396.00,0.0087
3395.00,0.0087
3394.00,0.0087
3393.00,0.0087
3392.00,0.0088
3391.00,0.0088
3390.00,0.0087
3389.00,0.0087
3388.00,0.0087
3387.00,0.0087
3386.00,0.0087
3385.00,0.0088
3384.00,0.0089
3383.00,0.0088
3382.00,0.0088
3381.00,0.0087
3380.00,0.0086
3379.00,0.0086
3378.00,0.0087
3377.00,0.0088
3376.00,0.0088
3375.00,0.0088
3374.00,0.0088
3373.00,0.0089
3372.00,0.0089
3371.00,0.0089
3370.00,0.0089
3369.00,0.0089
3368.00,0.0089
3367.00,0.0089
3366.00,0.0090
3365.00,0.0090
3364.00,0.0090
3363.00,0.0090
3362.00,0.0090
3361.00,0.0090
3360.00,0.0090
3359.00,0.0090
3358.00,0.0090
3357.00,0.0090
3356.00,0.0091
3355.00,0.0091
3354.00,0.0091
3353.00,0.0091
3352.00,0.0090
3351.00,0.0090
3350.00,0.0090
3349.00,0.0089
3348.00,0.0089
3347.00,0.0088
3346.00,0.0088
3345.00,0.0089
3344.00,0.0090
3343.00,0.0090
3342.00,0.0091
3341.00,0.0091
3340.00,0.0091
3339.00,0.0091
3338.00,0.0091
3337.00,0.0091
3336.00,0.0091
3335.00,0.0091
3334.00,0.0091
3333.00,0.0092
3332.00,0.0092
3331.00,0.0091
3330.00,0.0091
3329.00,0.0091
3328.00,0.0091
3327.00,0.0091
3326.00,0.0092
3325.00,0.0092
3324.00,0.0092
3323.00,0.0093
3322.00,0.0093
3321.00,0.0092
3320.00,0.0092
3319.00,0.0092
3318.00,0.0091
3317.00,0.0091
3316.00,0.0092
3315.00,0.0092
3314.00,0.0092
3313.00,0.0092
3312.00,0.0092
3311.00,0.0092
3310.00,0.0092
3309.00,0.0092
3308.00,0.0092
3307.00,0.0093
3306.00,0.0093
3305.00,0.0094
3304.00,0.0094
3303.00,0.0094
3302.00,0.0094
3301.00,0.0093
3300.00,0.0092
3299.00,0.0092
3298.00,0.0092
3297.00,0.0093
3296.00,0.0093
3295.00,0.0093
3294.00,0.0093
3293.00,0.0093
3292.00,0.0093
3291.00,0.0093
3290.00,0.0093
3289.00,0.0094
3288.00,0.0094
3287.00,0.0094
3286.00,0.0094
3285.00,0.0094
3284.00,0.0094
3283.00,0.0094
3282.00,0.0094
3281.00,0.0093
3280.00,0.0093
3279.00,0.0093
3278.00,0.0093
3277.00,0.0093
3276.00,0.0093
3275.00,0.0094
3274.00,0.0094
3273.00,0.0095
3272.00,0.0095
3271.00,0.0095
3270.00,0.0094
3269.00,0.0094
3268.00,0.0094
3267.00,0.0094
3266.00,0.0094
3265.00,0.0094
3264.00,0.0094
3263.00,0.0094
3262.00,0.0094
3261.00,0.0094
3260.00,0.0094
3259.00,0.0094
3258.00,0.0095
3257.00,0.0095
3256.00,0.0095
3255.00,0.0095
3254.00,0.0094
3253.00,0.0094
3252.00,0.0093
3251.00,0.0093
3250.00,0.0094
3249.00,0.0094
3248.00,0.0095
3247.00,0.0096
3246.00,0.0096
3245.00,0.0096
3244.00,0.0096
3243.00,0.0096
3242.00,0.0096
3241.00,0.0096
3240.00,0.0096
3239.00,0.0096
3238.00,0.0096
3237.00,0.0096
3236.00,0.0096
3235.00,0.0096
3234.00,0.0096
3233.00,0.0096
3232.00,0.0097
3231.00,0.0097
3230.00,0.0097
3229.00,0.0097
3228.00,0.0096
3227.00,0.0096
3226.00,0.0096
3225.00,0.0096
3224.00,0.0096
3223.00,0.0096
3222.00,0.0096
3221.00,0.0096
3220.00,0.0096
3219.00,0.0096
3218.00,0.0095
3217.00,0.0095
3216.00,0.0094
3215.00,0.0095
3214.00,0.0095
3213.00,0.0096
3212.00,0.0097
3211.00,0.0097
3210.00,0.0097
3209.00,0.0097
3208.00,0.0096
3207.00,0.0096
3206.00,0.0096
3205.00,0.0096
3204.00,0.0097
3203.00,0.0096
3202.00,0.0096
3201.00,0.0096
3200.00,0.0096
3199.00,0.0096
3198.00,0.0096
3197.00,0.0096
3196.00,0.0096
3195.00,0.0096
3194.00,0.0096
3193.00,0.0096
3192.00,0.0096
3191.00,0.0096
3190.00,0.0096
3189.00,0.0096
3188.00,0.0096
3187.00,0.0096
3186.00,0.0096
3185.00,0.0096
3184.00,0.0096
3183.00,0.0096
3182.00,0.0096
3181.00,0.0096
3180.00,0.0096
3179.00,0.0096
3178.00,0.0096
3177.00,0.0096
3176.00,0.0096
3175.00,0.0096
3174.00,0.0096
3173.00,0.0096
3172.00,0.0096
3171.00,0.0095
3170.00,0.0095
3169.00,0.0095
3168.00,0.0095
3167.00,0.0095
3166.00,0.0095
3165.00,0.0095
3164.00,0.0095
3163.00,0.0095
3162.00,0.0095
3161.00,0.0095
3160.00,0.0095
3159.00,0.0095
3158.00,0.0095
3157.00,0.0095
3156.00,0.0095
3155.00,0.0095
3154.00,0.0094
3153.00,0.0094
3152.00,0.0094
3151.00,0.0094
3150.00,0.0094
3149.00,0.0094
3148.00,0.0094
3147.00,0.0094
3146.00,0.0094
3145.00,0.0094
3144.00,0.0094
3143.00,0.0094
3142.00,0.0094
3141.00,0.0094
3140.00,0.0094
3139.00,0.0094
3138.00,0.0093
3137.00,0.0093
3136.00,0.0094
3135.00,0.0094
3134.00,0.0093
3133.00,0.0093
3132.00,0.0093
3131.00,0.0093
3130.00,0.0093
3129.00,0.0093
3128.00,0.0093
3127.00,0.0093
3126.00,0.0093
3125.00,0.0093
3124.00,0.0093
3123.00,0.0093
3122.00,0.0092
3121.00,0.0092
3120.00,0.0092
3119.00,0.0092
3118.00,0.0092
3117.00,0.0092
3116.00,0.0092
3115.00,0.0093
3114.00,0.0093
3113.00,0.0093
3112.00,0.0093
3111.00,0.0092
3110.00,0.0092
3109.00,0.0091
3108.00,0.0091
3107.00,0.0091
3106.00,0.0091
3105.00,0.0091
3104.00,0.0091
3103.00,0.0092
3102.00,0.0092
3101.00,0.0092
3100.00,0.0092
3099.00,0.0092
3098.00,0.0092
3097.00,0.0092
3096.00,0.0092
3095.00,0.0092
3094.00,0.0092
3093.00,0.0092
3092.00,0.0092
3091.00,0.0091
3090.00,0.0091
3089.00,0.0091
3088.00,0.0091
3087.00,0.0092
3086.00,0.0092
3085.00,0.0091
3084.00,0.0091
3083.00,0.0091
3082.00,0.0091
3081.00,0.0091
3080.00,0.0091
3079.00,0.0091
3078.00,0.0091
3077.00,0.0091
3076.00,0.0091
3075.00,0.0090
3074.00,0.0090
3073.00,0.0090
3072.00,0.0090
3071.00,0.0091
3070.00,0.0091
3069.00,0.0090
3068.00,0.0090
3067.00,0.0090
3066.00,0.0090
3065.00,0.0090
3064.00,0.0090
3063.00,0.0090
3062.00,0.0090
3061.00,0.0090
3060.00,0.0090
3059.00,0.0090
3058.00,0.0090
3057.00,0.0089
3056.00,0.0089
3055.00,0.0089
3054.00,0.0089
3053.00,0.0090
3052.00,0.0089
3051.00,0.0089
3050.00,0.0088
3049.00,0.0088
3048.00,0.0088
3047.00,0.0087
3046.00,0.0088
3045.00,0.0088
3044.00,0.0088
3043.00,0.0088
3042.00,0.0088
3041.00,0.0087
3040.00,0.0087
3039.00,0.0087
3038.00,0.0087
3037.00,0.0087
3036.00,0.0087
3035.00,0.0087
3034.00,0.0087
3033.00,0.0088
3032.00,0.0088
3031.00,0.0088
3030.00,0.0087
3029.00,0.0087
3028.00,0.0086
3027.00,0.0086
3026.00,0.0085
3025.00,0.0085
3024.00,0.0085
3023.00,0.0086
3022.00,0.0086
3021.00,0.0086
3020.00,0.0085
3019.00,0.0085
3018.00,0.0084
3017.00,0.0084
3016.00,0.0084
3015.00,0.0084
3014.00,0.0085
3013.00,0.0085
3012.00,0.0085
3011.00,0.0085
3010.00,0.0084
3009.00,0.0084
3008.00,0.0084
3007.00,0.0084
3006.00,0.0084
3005.00,0.0084
3004.00,0.0084
3003.00,0.0083
3002.00,0.0083
3001.00,0.0082
3000.00,0.0082
2999.00,0.0082
2998.00,0.0082
2997.00,0.0082
2996.00,0.0082
2995.00,0.0082
2994.00,0.0082
2993.00,0.0081
2992.00,0.0081
2991.00,0.0080
2990.00,0.0080
2989.00,0.0080
2988.00,0.0080
2987.00,0.0080
2986.00,0.0080
2985.00,0.0080
2984.00,0.0080
2983.00,0.0079
2982.00,0.0078
2981.00,0.0078
2980.00,0.0078
2979.00,0.0078
2978.00,0.0079
2977.00,0.0079
2976.00,0.0079
2975.00,0.0079
2974.00,0.0079
2973.00,0.0078
2972.00,0.0077
2971.00,0.0077
2970.00,0.0076
2969.00,0.0076
2968.00,0.0076
2967.00,0.0076
2966.00,0.0075
2965.00,0.0075
2964.00,0.0075
2963.00,0.0074
2962.00,0.0074
2961.00,0.0074
2960.00,0.0074
2959.00,0.0074
2958.00,0.0074
2957.00,0.0073
2956.00,0.0073
2955.00,0.0072
2954.00,0.0072
2953.00,0.0073
2952.00,0.0073
2951.00,0.0074
2950.00,0.0074
2949.00,0.0074
2948.00,0.0074
2947.00,0.0074
2946.00,0.0074
2945.00,0.0074
2944.00,0.0074
2943.00,0.0073
2942.00,0.0073
2941.00,0.0072
2940.00,0.0071
2939.00,0.0071
2938.00,0.0070
2937.00,0.0070
2936.00,0.0070
2935.00,0.0069
2934.00,0.0069
2933.00,0.0068
2932.00,0.0067
2931.00,0.0067
2930.00,0.0066
2929.00,0.0065
2928.00,0.0064
2927.00,0.0063
2926.00,0.0062
2925.00,0.0061
2924.00,0.0061
2923.00,0.0061
2922.00,0.0061
2921.00,0.0062
2920.00,0.0062
2919.00,0.0062
2918.00,0.0061
2917.00,0.0061
2916.00,0.0062
2915.00,0.0063
2914.00,0.0064
2913.00,0.0065
2912.00,0.0066
2911.00,0.0067
2910.00,0.0068
2909.00,0.0068
2908.00,0.0069
2907.00,0.0069
2906.00,0.0069
2905.00,0.0069
2904.00,0.0069
2903.00,0.0069
2902.00,0.0070
2901.00,0.0070
2900.00,0.0070
2899.00,0.0070
2898.00,0.0070
2897.00,0.0070
2896.00,0.0070
2895.00,0.0070
2894.00,0.0070
2893.00,0.0070
2892.00,0.0070
2891.00,0.0070
2890.00,0.0071
2889.00,0.0071
2888.00,0.0071
2887.00,0.0071
2886.00,0.0071
2885.00,0.0071
2884.00,0.0072
2883.00,0.0072
2882.00,0.0072
2881.00,0.0072
2880.00,0.0072
2879.00,0.0072
2878.00,0.0071
2877.00,0.0071
2876.00,0.0070
2875.00,0.0070
2874.00,0.0069
2873.00,0.0069
2872.00,0.0068
2871.00,0.0068
2870.00,0.0068
2869.00,0.0068
2868.00,0.0068
2867.00,0.0067
2866.00,0.0067
2865.00,0.0066
2864.00,0.0066
2863.00,0.0066
2862.00,0.0066
2861.00,0.0066
2860.00,0.0065
2859.00,0.0065
2858.00,0.0064
2857.00,0.0063
2856.00,0.0063
2855.00,0.0062
2854.00,0.0062
2853.00,0.0062
2852.00,0.0062
2851.00,0.0062
2850.00,0.0062
2849.00,0.0062
2848.00,0.0062
2847.00,0.0063
2846.00,0.0064
2845.00,0.0064
2844.00,0.0065
2843.00,0.0066
2842.00,0.0067
2841.00,0.0067
2840.00,0.0067
2839.00,0.0068
2838.00,0.0068
2837.00,0.0069
2836.00,0.0069
2835.00,0.0069
2834.00,0.0069
2833.00,0.0068
2832.00,0.0068
2831.00,0.0068
2830.00,0.0068
2829.00,0.0068
2828.00,0.0069
2827.00,0.0069
2826.00,0.0069
2825.00,0.0068
2824.00,0.0068
2823.00,0.0068
2822.00,0.0068
2821.00,0.0068
2820.00,0.0068
2819.00,0.0068
2818.00,0.0068
2817.00,0.0068
2816.00,0.0068
2815.00,0.0067
2814.00,0.0067
2813.00,0.0067
2812.00,0.0067
2811.00,0.0067
2810.00,0.0067
2809.00,0.0067
2808.00,0.0067
2807.00,0.0067
2806.00,0.0067
2805.00,0.0067
2804.00,0.0066
2803.00,0.0066
2802.00,0.0066
2801.00,0.0066
2800.00,0.0066
2799.00,0.0066
2798.00,0.0066
2797.00,0.0066
2796.00,0.0066
2795.00,0.0066
2794.00,0.0065
2793.00,0.0065
2792.00,0.0065
2791.00,0.0065
2790.00,0.0066
2789.00,0.0066
2788.00,0.0066
2787.00,0.0066
2786.00,0.0066
2785.00,0.0065
2784.00,0.0065
2783.00,0.0065
2782.00,0.0065
2781.00,0.0065
2780.00,0.0064
2779.00,0.0064
2778.00,0.0064
2777.00,0.0064
2776.00,0.0065
2775.00,0.0065
2774.00,0.0065
2773.00,0.0065
2772.00,0.0064
2771.00,0.0064
2770.00,0.0064
2769.00,0.0064
2768.00,0.0064
2767.00,0.0064
2766.00,0.0064
2765.00,0.0064
2764.00,0.0064
2763.00,0.0064
2762.00,0.0064
2761.00,0.0064
2760.00,0.0064
2759.00,0.0064
2758.00,0.0064
2757.00,0.0063
2756.00,0.0063
2755.00,0.0063
2754.00,0.0063
